Frequency (Hz),Amplitude (dBm)
100000,-58.35
101000,-59
102000,-57.75
103000,-58.75
104000,-59.16
105000,-60.45
106000,-58.43
107000,-60.95
108000,-61.34
109000,-61.74
110000,-61.75
111000,-62.28
112000,-62.01
113000,-62.89
114000,-60
115000,-62.91
116000,-62.77
117000,-62.14
118000,-62.95
119000,-62.96
120000,-63.27
121000,-63.93
122000,-63.61
123000,-63.96
124000,-63.09
125000,-63.49
126000,-63.19
127000,-62.9
128000,-63.85
129000,-63.94
130000,-63.01
131000,-63.32
132000,-63.73
133000,-60.9
134000,-63.52
135000,-65.65
136000,-65.18
137000,-64.38
138000,-65.69
139000,-65.51
140000,-63.43
141000,-63.6
142000,-65.45
143000,-64.11
144000,-64.72
145000,-64.39
146000,-65.2
147000,-65.41
148000,-65.14
149000,-65.34
150000,-66.14
151000,-66.69
152000,-65.28
153000,-64.93
154000,-65.4
155000,-66.41
156000,-64.78
157000,-64.97
158000,-65.44
159000,-66.89
160000,-65.66
161000,-67.03
162000,-64.68
163000,-66.1
164000,-65.71
165000,-65.92
166000,-66.03
167000,-66.45
168000,-67.35
169000,-66.26
170000,-65.88
171000,-66.82
172000,-65.43
173000,-68.01
174000,-64.99
175000,-64.75
176000,-66.99
177000,-67.11
178000,-67.35
179000,-67.13
180000,-67.49
181000,-65.82
182000,-67.28
183000,-68.13
184000,-68.66
185000,-67.55
186000,-67.45
187000,-67.01
188000,-65.52
189000,-67.96
190000,-66.73
191000,-66.63
192000,-66.75
193000,-66.66
194000,-64.98
195000,-64.25
196000,-62.78
197000,-62.28
198000,-62.17
199000,-61.58
200000,-60.93
201000,-61.83
202000,-62.32
203000,-62.45
204000,-63.37
205000,-63.44
206000,-67.31
207000,-67.65
208000,-68.13
209000,-67.9
210000,-68.26
211000,-69.5
212000,-68.78
213000,-68.91
214000,-70.24
215000,-68.17
216000,-69.66
217000,-69.6
218000,-69.46
219000,-69.68
220000,-69.47
221000,-70.67
222000,-68.32
223000,-70.29
224000,-68.84
225000,-69.28
226000,-69.5
227000,-68.98
228000,-68.99
229000,-69.59
230000,-70.4
231000,-69.14
232000,-70.18
233000,-70.9
234000,-69.97
235000,-70.2
236000,-69.98
237000,-69.77
238000,-69.17
239000,-69.56
240000,-70.3
241000,-68.06
242000,-71.81
243000,-70.78
244000,-70.32
245000,-70.18
246000,-70.8
247000,-70.65
248000,-70.65
249000,-71.15
250000,-70.58
251000,-71.16
252000,-70.59
253000,-69.71
254000,-70.52
255000,-71.26
256000,-71.1
257000,-69.27
258000,-70.39
259000,-70.94
260000,-69.81
261000,-69.67
262000,-71.64
263000,-71.55
264000,-70.42
265000,-69.48
266000,-69.84
267000,-71.41
268000,-70.06
269000,-72.41
270000,-72.32
271000,-71.17
272000,-70.38
273000,-72.53
274000,-70.78
275000,-71.02
276000,-70.33
277000,-70.87
278000,-71.55
279000,-70.96
280000,-71.38
281000,-71.82
282000,-69.92
283000,-70.37
284000,-71.07
285000,-70.38
286000,-69.02
287000,-70.09
288000,-69.88
289000,-68.78
290000,-67.73
291000,-65.25
292000,-62.53
293000,-59.66
294000,-56.28
295000,-53.82
296000,-51.64
297000,-49.8
298000,-48.37
299000,-47.64
300000,-47.31
301000,-47.64
302000,-48.38
303000,-49.71
304000,-51.59
305000,-53.94
306000,-56.91
307000,-60.05
308000,-62.21
309000,-65.55
310000,-68
311000,-69.09
312000,-70.22
313000,-69.73
314000,-71.07
315000,-71.07
316000,-72.47
317000,-70.67
318000,-72.01
319000,-72.86
320000,-72.37
321000,-72.66
322000,-73.48
323000,-73.26
324000,-73.58
325000,-73.16
326000,-72.37
327000,-71.57
328000,-72.86
329000,-73.06
330000,-74.61
331000,-70.15
332000,-71.74
333000,-73.26
334000,-73.58
335000,-73.91
336000,-71.92
337000,-73.69
338000,-74.14
339000,-72.66
340000,-73.69
341000,-72.37
342000,-72.76
343000,-74.25
344000,-74.02
345000,-74.86
346000,-71.24
347000,-72.29
348000,-74.61
349000,-74.02
350000,-73.69
351000,-73.69
352000,-73.8
353000,-71.57
354000,-73.8
355000,-72.19
356000,-75.37
357000,-75.12
358000,-73.91
359000,-74.61
360000,-75.12
361000,-74.49
362000,-74.74
363000,-74.98
364000,-74.14
365000,-74.38
366000,-73.69
367000,-75.68
368000,-75.24
369000,-73.91
370000,-73.58
371000,-74.02
372000,-74.74
373000,-75.37
374000,-73.8
375000,-75.82
376000,-74.14
377000,-75.24
378000,-74.14
379000,-74.83
380000,-73.77
381000,-73.87
382000,-74.95
383000,-73.13
384000,-74.46
385000,-75.34
386000,-75.08
387000,-74.22
388000,-73.87
389000,-75.08
390000,-74.1
391000,-72.73
392000,-74.1
393000,-74.34
394000,-71.71
395000,-72.63
396000,-71.28
397000,-69.91
398000,-69.45
399000,-69.06
400000,-69.62
401000,-69.06
402000,-70.05
403000,-70.49
404000,-71.45
405000,-72.25
406000,-72.25
407000,-73.23
408000,-73.77
409000,-73.55
410000,-74.95
411000,-75.47
412000,-74.58
413000,-74.1
414000,-74.22
415000,-76
416000,-75.79
417000,-75.08
418000,-76.74
419000,-75.47
420000,-74.58
421000,-75.47
422000,-75.34
423000,-76.9
424000,-74.83
425000,-75.21
426000,-75.93
427000,-76.29
428000,-75.21
429000,-74.58
430000,-75.65
431000,-75.08
432000,-76.36
433000,-76.21
434000,-75.47
435000,-74.83
436000,-75.58
437000,-74.95
438000,-75.47
439000,-76.29
440000,-76.29
441000,-75.08
442000,-74.95
443000,-75.86
444000,-75.93
445000,-74.95
446000,-76.9
447000,-75.72
448000,-75.34
449000,-74.74
450000,-75.5
451000,-76.1
452000,-75.24
453000,-74.49
454000,-76.47
455000,-75.24
456000,-76.47
457000,-75.68
458000,-74.74
459000,-74.37
460000,-75.68
461000,-77.43
462000,-75.24
463000,-76.17
464000,-76.54
465000,-75.96
466000,-76.47
467000,-74.74
468000,-76.39
469000,-77.01
470000,-76.32
471000,-77.26
472000,-73.69
473000,-75.96
474000,-76.77
475000,-73.69
476000,-76.47
477000,-75.68
478000,-76.39
479000,-76.85
480000,-74.37
481000,-76.77
482000,-76.69
483000,-74.61
484000,-75.12
485000,-74.25
486000,-76.24
487000,-75.5
488000,-75.68
489000,-74.02
490000,-74.61
491000,-76.85
492000,-75.75
493000,-75.89
494000,-75.68
495000,-75.37
496000,-74.74
497000,-76.77
498000,-75.12
499000,-75.24
500000,-67.78
501000,-75.82
502000,-75.24
503000,-76.1
504000,-75.24
505000,-75.5
506000,-76.03
507000,-76.85
508000,-76.69
509000,-75.96
510000,-76.54
511000,-77.09
512000,-77.09
513000,-77.51
514000,-77.85
515000,-77.01
516000,-74.49
517000,-75.37
518000,-76.17
519000,-77.09
520000,-76.17
521000,-76.69
522000,-76.85
523000,-75.37
524000,-76.77
525000,-77.09
526000,-77.34
527000,-76.24
528000,-75.96
529000,-76.69
530000,-75.5
531000,-73.8
532000,-76.39
533000,-76.69
534000,-77.43
535000,-75.37
536000,-75.75
537000,-77.01
538000,-76.24
539000,-77.17
540000,-75.5
541000,-75.68
542000,-75.89
543000,-76.17
544000,-76.77
545000,-76.62
546000,-76.85
547000,-75.68
548000,-76.24
549000,-75.11
550000,-77.59
551000,-74.98
552000,-75.68
553000,-76.62
554000,-75.24
555000,-77.01
556000,-74.74
557000,-77.85
558000,-77.34
559000,-77.5
560000,-77.17
561000,-77.09
562000,-76.54
563000,-77.01
564000,-77.43
565000,-76.77
566000,-76.69
567000,-76.85
568000,-76.03
569000,-75.68
570000,-76.39
571000,-76.1
572000,-77.09
573000,-77.85
574000,-76.69
575000,-76.39
576000,-76.93
577000,-74.74
578000,-76.77
579000,-75.68
580000,-75.89
581000,-77.01
582000,-74.86
583000,-76.47
584000,-76.85
585000,-76.85
586000,-77.5
587000,-76.69
588000,-76.85
589000,-75.68
590000,-77.01
591000,-77.01
592000,-74.86
593000,-77.17
594000,-76.93
595000,-77.01
596000,-77.26
597000,-77.5
598000,-76.62
599000,-76.69
600000,-75.24
601000,-74.74
602000,-75.82
603000,-76.24
604000,-76.24
605000,-76.77
606000,-75.5
607000,-76.32
608000,-75.82
609000,-76.24
610000,-76.39
611000,-77.34
612000,-77.85
613000,-75.68
614000,-77.09
615000,-77.17
616000,-76.17
617000,-76.1
618000,-77.34
619000,-77.09
620000,-76.54
621000,-77.17
622000,-76.54
623000,-77.42
624000,-77.85
625000,-76.85
626000,-77.17
627000,-77.68
628000,-77.76
629000,-76.69
630000,-78.4
631000,-78.59
632000,-77.5
633000,-78.21
634000,-76.03
635000,-78.12
636000,-76.39
637000,-76.77
638000,-76.39
639000,-78.03
640000,-76.69
641000,-76.93
642000,-77.42
643000,-76.24
644000,-75.89
645000,-76.69
646000,-76.85
647000,-77.5
648000,-77.01
649000,-77.26
650000,-77.68
651000,-77.09
652000,-75.3
653000,-77.1
654000,-77.27
655000,-77.69
656000,-77.69
657000,-76.71
658000,-77.1
659000,-78.72
660000,-77.61
661000,-78.05
662000,-77.19
663000,-76.18
664000,-77.78
665000,-76.48
666000,-75.61
667000,-77.53
668000,-77.53
669000,-77.27
670000,-77.44
671000,-77.27
672000,-78.72
673000,-76.41
674000,-78.52
675000,-78.72
676000,-78.52
677000,-76.48
678000,-76.71
679000,-76.71
680000,-79.02
681000,-79.02
682000,-77.02
683000,-77.78
684000,-77.97
685000,-77.1
686000,-77.53
687000,-77.02
688000,-78.24
689000,-77.44
690000,-78.81
691000,-77.53
692000,-77.27
693000,-77.87
694000,-77.69
695000,-78.33
696000,-74.18
697000,-77.36
698000,-76.63
699000,-75.05
700000,-76.26
701000,-75.3
702000,-76.48
703000,-77.1
704000,-77.87
705000,-77.53
706000,-79.02
707000,-78.91
708000,-78.14
709000,-77.97
710000,-78.52
711000,-78.14
712000,-77.97
713000,-79.43
714000,-78.72
715000,-77.61
716000,-78.05
717000,-78.05
718000,-79.11
719000,-78.78
720000,-79.71
721000,-77.59
722000,-78.03
723000,-77.68
724000,-78.59
725000,-78.03
726000,-77.26
727000,-77.59
728000,-78.59
729000,-78.21
730000,-78.69
731000,-78.21
732000,-78.21
733000,-79.6
734000,-78.21
735000,-78.78
736000,-79.93
737000,-79.82
738000,-80.88
739000,-79.82
740000,-79.6
741000,-78.78
742000,-79.39
743000,-77.34
744000,-78.78
745000,-79.93
746000,-79.6
747000,-77.34
748000,-78.78
749000,-79.5
750000,-80.27
751000,-79.39
752000,-78.03
753000,-78.98
754000,-77.68
755000,-78.03
756000,-79.39
757000,-78.98
758000,-80.63
759000,-79.18
760000,-79.39
761000,-80.04
762000,-79.18
763000,-76.77
764000,-79.93
765000,-79.71
766000,-79.18
767000,-80.4
768000,-80.27
769000,-80.04
770000,-79.28
771000,-79.71
772000,-80.04
773000,-78.59
774000,-79.18
775000,-78.78
776000,-78.78
777000,-79.6
778000,-78.31
779000,-80.04
780000,-78.98
781000,-81.26
782000,-79.82
783000,-79.39
784000,-80.04
785000,-79.6
786000,-79.6
787000,-79.5
788000,-80.81
789000,-79.01
790000,-77.87
791000,-79.54
792000,-78.91
793000,-78.91
794000,-79.76
795000,-77.78
796000,-76.48
797000,-78.91
798000,-76.86
799000,-78.24
800000,-77.97
801000,-78.72
802000,-77.1
803000,-78.62
804000,-78.33
805000,-78.05
806000,-79.54
807000,-78.91
808000,-80.69
809000,-79.54
810000,-79.54
811000,-79.32
812000,-79.64
813000,-78.33
814000,-78.33
815000,-80.57
816000,-79.64
817000,-79.43
818000,-80.09
819000,-78.14
820000,-79.54
821000,-81.63
822000,-80.21
823000,-77.97
824000,-78.71
825000,-79.54
826000,-81.19
827000,-80.09
828000,-79.54
829000,-78.05
830000,-79.98
831000,-79.32
832000,-80.21
833000,-80.21
834000,-80.44
835000,-80.21
836000,-79.76
837000,-80.94
838000,-79.43
839000,-79.53
840000,-80.94
841000,-78.52
842000,-79.32
843000,-79.32
844000,-79.01
845000,-79.32
846000,-78.71
847000,-80.57
848000,-81.07
849000,-80.57
850000,-80.21
851000,-80.21
852000,-80.94
853000,-79.32
854000,-80.09
855000,-79.76
856000,-79.71
857000,-79.39
858000,-78.21
859000,-80.04
860000,-79.39
861000,-80.51
862000,-79.39
863000,-80.51
864000,-80.51
865000,-79.82
866000,-81
867000,-79.82
868000,-79.93
869000,-78.98
870000,-79.93
871000,-80.76
872000,-81.7
873000,-80.27
874000,-79.82
875000,-77.5
876000,-80.27
877000,-81.39
878000,-80.63
879000,-80.04
880000,-81.52
881000,-81.26
882000,-79.82
883000,-81.26
884000,-79.18
885000,-80.04
886000,-81
887000,-81.14
888000,-81.52
889000,-80.63
890000,-80.16
891000,-80.63
892000,-80.63
893000,-79.82
894000,-79.93
895000,-79.39
896000,-78.78
897000,-79.6
898000,-78.97
899000,-77.01
900000,-78.78
901000,-77.09
902000,-78.21
903000,-78.49
904000,-78.49
905000,-80.04
906000,-80.88
907000,-79.28
908000,-81
909000,-80.51
910000,-81.39
911000,-81
912000,-80.88
913000,-81.26
914000,-81
915000,-79.71
916000,-81.39
917000,-80.04
918000,-81
919000,-79.5
920000,-80.76
921000,-81.52
922000,-80.76
923000,-80.51
924000,-78.94
925000,-81.23
926000,-79.46
927000,-79.89
928000,-80.72
929000,-78.75
930000,-81.74
931000,-81.95
932000,-80.97
933000,-81.36
934000,-80.72
935000,-81.95
936000,-80.48
937000,-80.24
938000,-80.24
939000,-82.53
940000,-80.48
941000,-80.85
942000,-79.79
943000,-80.85
944000,-81.23
945000,-80.48
946000,-80.72
947000,-78.55
948000,-80.01
949000,-80.97
950000,-80.24
951000,-81.36
952000,-80.01
953000,-80.6
954000,-80.36
955000,-80.6
956000,-80.72
957000,-81.67
958000,-80.97
959000,-79.79
960000,-80.72
961000,-80.48
962000,-80.48
963000,-80.72
964000,-80.72
965000,-80.48
966000,-81.23
967000,-80.72
968000,-80.48
969000,-79.79
970000,-79.89
971000,-80.72
972000,-79.36
973000,-81.74
974000,-81.36
975000,-81.81
976000,-80.72
977000,-82.02
978000,-81.67
979000,-82.61
980000,-81.81
981000,-81.74
982000,-81.49
983000,-80.48
984000,-80.72
985000,-82.02
986000,-81.1
987000,-81.1
988000,-81.23
989000,-80.85
990000,-81.81
991000,-80.01
992000,-79.79
993000,-81.36
994000,-80.24
995000,-79.57
996000,-77.47
997000,-77.64
998000,-78.94
999000,-78.36
1000000,-77.64
1001000,-77.81
1002000,-77.39
1003000,-79.25
1004000,-79.36
1005000,-80.24
1006000,-80.12
1007000,-81.95
1008000,-81.95
1009000,-82.23
1010000,-82.02
1011000,-82.09
1012000,-80.48
1013000,-81.67
1014000,-82.31
1015000,-80.36
1016000,-82.38
1017000,-81.1
1018000,-80.12
1019000,-82.31
1020000,-80.24
1021000,-81.74
1022000,-81.1
1023000,-81.49
1024000,-79.89
1025000,-81.22
1026000,-80.97
1027000,-82.31
1028000,-80.72
1029000,-81.49
1030000,-82.31
1031000,-82.68
1032000,-80.85
1033000,-81.95
1034000,-80.97
1035000,-81.1
1036000,-79.57
1037000,-81.49
1038000,-81.95
1039000,-80.48
1040000,-79.14
1041000,-81.81
1042000,-80.97
1043000,-81.74
1044000,-81.67
1045000,-80.97
1046000,-82.53
1047000,-81.81
1048000,-79.57
1049000,-80.47
1050000,-81.89
1051000,-80.67
1052000,-81.17
1053000,-82.78
1054000,-81.89
1055000,-81.04
1056000,-81.43
1057000,-81.96
1058000,-81.17
1059000,-81.61
1060000,-81.75
1061000,-82.25
1062000,-81.17
1063000,-81.75
1064000,-81.89
1065000,-80.54
1066000,-81.68
1067000,-82.17
1068000,-80.42
1069000,-80.91
1070000,-80.67
1071000,-82.86
1072000,-82.03
1073000,-82.03
1074000,-80.42
1075000,-81.43
1076000,-80.67
1077000,-81.96
1078000,-79.51
1079000,-80.91
1080000,-80.42
1081000,-81.89
1082000,-81.89
1083000,-80.91
1084000,-83.1
1085000,-82.32
1086000,-80.91
1087000,-82.55
1088000,-82.55
1089000,-81.43
1090000,-80.91
1091000,-81.96
1092000,-80.66
1093000,-81.43
1094000,-80.91
1095000,-79.73
1096000,-79.84
1097000,-79.62
1098000,-78.99
1099000,-78.12
1100000,-79.95
1101000,-79.19
1102000,-79.73
1103000,-79.19
1104000,-79.51
1105000,-79.73
1106000,-81.17
1107000,-82.94
1108000,-82.94
1109000,-82.78
1110000,-80.54
1111000,-81.75
1112000,-82.17
1113000,-81.17
1114000,-81.96
1115000,-82.86
1116000,-81.61
1117000,-80.79
1118000,-81.43
1119000,-81.96
1120000,-81.17
1121000,-82.86
1122000,-82.62
1123000,-81.96
1124000,-80.54
1125000,-83.52
1126000,-81.68
1127000,-82.17
1128000,-82.47
1129000,-81.43
1130000,-81.3
1131000,-81.17
1132000,-82.03
1133000,-83.43
1134000,-81.75
1135000,-81.43
1136000,-80.3
1137000,-80.66
1138000,-82.62
1139000,-83.1
1140000,-82.25
1141000,-82.55
1142000,-81.89
1143000,-83.19
1144000,-82.17
1145000,-81.68
1146000,-83.1
1147000,-81.43
1148000,-82.25
1149000,-83.52
1150000,-82.86
1151000,-83.52
1152000,-82.32
1153000,-79.73
1154000,-82.78
1155000,-81.68
1156000,-80.91
1157000,-82.32
1158000,-82.32
1159000,-82.03
1160000,-81.89
1161000,-79.3
1162000,-83.43
1163000,-82.25
1164000,-82.62
1165000,-82.03
1166000,-80.42
1167000,-82.17
1168000,-82.47
1169000,-79.73
1170000,-82.25
1171000,-82.55
1172000,-80.91
1173000,-81.17
1174000,-82.47
1175000,-81.75
1176000,-81.96
1177000,-82.03
1178000,-81.61
1179000,-82.03
1180000,-82.94
1181000,-82.62
1182000,-80.42
1183000,-81.3
1184000,-82.94
1185000,-81.61
1186000,-82.32
1187000,-81.68
1188000,-80.18
1189000,-81.17
1190000,-82.47
1191000,-82.62
1192000,-82.47
1193000,-81.68
1194000,-81.17
1195000,-80.34
1196000,-80.7
1197000,-79.98
1198000,-78.25
1199000,-77.28
1200000,-78.72
1201000,-78.15
1202000,-79.33
1203000,-80.34
1204000,-80.34
1205000,-81.2
1206000,-81.92
1207000,-81.99
1208000,-82.81
1209000,-81.33
1210000,-81.08
1211000,-82.58
1212000,-80.7
1213000,-82.89
1214000,-82.36
1215000,-83.22
1216000,-82.89
1217000,-82.58
1218000,-82.89
1219000,-82.97
1220000,-83.55
1221000,-82.28
1222000,-82.28
1223000,-79.98
1224000,-83.47
1225000,-82.06
1226000,-82.97
1227000,-82.58
1228000,-83.22
1229000,-82.51
1230000,-81.92
1231000,-79.76
1232000,-84.17
1233000,-84
1234000,-81.99
1235000,-82.21
1236000,-82.81
1237000,-81.92
1238000,-82.65
1239000,-82.28
1240000,-81.92
1241000,-83.22
1242000,-83.22
1243000,-81.64
1244000,-82.36
1245000,-83.47
1246000,-82.97
1247000,-82.35
1248000,-82.58
1249000,-82.81
1250000,-81.71
1251000,-80.94
1252000,-81.99
1253000,-83.55
1254000,-82.5
1255000,-80.34
1256000,-82.58
1257000,-83.47
1258000,-83.55
1259000,-83.64
1260000,-82.5
1261000,-82.28
1262000,-82.28
1263000,-82.35
1264000,-83.3
1265000,-80.94
1266000,-83.64
1267000,-83.47
1268000,-82.06
1269000,-81.2
1270000,-82.58
1271000,-82.89
1272000,-82.2
1273000,-81.46
1274000,-82.28
1275000,-83.3
1276000,-82.65
1277000,-81.46
1278000,-82.5
1279000,-82.81
1280000,-82.97
1281000,-81.33
1282000,-82.97
1283000,-82.2
1284000,-83.47
1285000,-82.35
1286000,-79.98
1287000,-80.1
1288000,-82.58
1289000,-81.99
1290000,-83.81
1291000,-81.92
1292000,-83.22
1293000,-82.65
1294000,-81.64
1295000,-81.46
1296000,-79.65
1297000,-78.43
1298000,-79.65
1299000,-78.72
1300000,-79.44
1301000,-79.54
1302000,-80.45
1303000,-80.21
1304000,-80.33
1305000,-81.71
1306000,-81.64
1307000,-82.97
1308000,-82.89
1309000,-82.58
1310000,-83.13
1311000,-82.5
1312000,-82.35
1313000,-83.22
1314000,-83.55
1315000,-84.55
1316000,-82.06
1317000,-83.55
1318000,-83.22
1319000,-82.97
1320000,-83.13
1321000,-81.46
1322000,-81.92
1323000,-82.89
1324000,-82.97
1325000,-83.47
1326000,-83.22
1327000,-81.78
1328000,-83.47
1329000,-82.65
1330000,-83.26
1331000,-83.19
1332000,-83.52
1333000,-83.61
1334000,-82.86
1335000,-83.61
1336000,-82.62
1337000,-83.26
1338000,-82.32
1339000,-81.43
1340000,-80.42
1341000,-81.43
1342000,-82.94
1343000,-82.47
1344000,-82.62
1345000,-82.47
1346000,-82.55
1347000,-82.86
1348000,-82.78
1349000,-82.47
1350000,-83.61
1351000,-82.32
1352000,-82.25
1353000,-82.25
1354000,-83.61
1355000,-82.94
1356000,-82.78
1357000,-81.68
1358000,-83.19
1359000,-82.94
1360000,-83.61
1361000,-84.52
1362000,-82.17
1363000,-81.75
1364000,-82.62
1365000,-83.26
1366000,-81.75
1367000,-82.32
1368000,-82.47
1369000,-81.43
1370000,-83.26
1371000,-82.17
1372000,-84.23
1373000,-81.17
1374000,-83.1
1375000,-82.62
1376000,-83.52
1377000,-81.68
1378000,-82.62
1379000,-81.43
1380000,-80.18
1381000,-81.43
1382000,-83.96
1383000,-82.94
1384000,-83.18
1385000,-83.61
1386000,-83.18
1387000,-82.86
1388000,-83.26
1389000,-80.91
1390000,-84.23
1391000,-81.43
1392000,-82.25
1393000,-82.55
1394000,-81.89
1395000,-80.66
1396000,-80.79
1397000,-79.33
1398000,-80.21
1399000,-78.53
1400000,-78.82
1401000,-78.91
1402000,-79.12
1403000,-80.1
1404000,-79.54
1405000,-79.54
1406000,-81.71
1407000,-82.35
1408000,-83.3
1409000,-82.28
1410000,-81.64
1411000,-82.28
1412000,-83.3
1413000,-83.3
1414000,-83.99
1415000,-84.36
1416000,-83.64
1417000,-83.46
1418000,-81.64
1419000,-82.2
1420000,-82.81
1421000,-83.64
1422000,-80.94
1423000,-84.65
1424000,-83.81
1425000,-82.81
1426000,-82.35
1427000,-82.65
1428000,-81.2
1429000,-81.64
1430000,-82.81
1431000,-82.5
1432000,-83.22
1433000,-83.13
1434000,-83.13
1435000,-81.99
1436000,-83.46
1437000,-81.2
1438000,-83.3
1439000,-83.46
1440000,-83.99
1441000,-83.22
1442000,-81.99
1443000,-82.28
1444000,-83.64
1445000,-81.64
1446000,-81.64
1447000,-84.17
1448000,-82.58
1449000,-83.3
1450000,-83.22
1451000,-82.81
1452000,-83.13
1453000,-82.89
1454000,-81.71
1455000,-83.22
1456000,-82.06
1457000,-82.97
1458000,-82.35
1459000,-83.46
1460000,-83.46
1461000,-84.65
1462000,-81.78
1463000,-84.23
1464000,-83.61
1465000,-82.94
1466000,-82.94
1467000,-83.26
1468000,-84.9
1469000,-84.23
1470000,-82.47
1471000,-84.14
1472000,-83.43
1473000,-83.1
1474000,-82.55
1475000,-85.11
1476000,-83.61
1477000,-82.86
1478000,-82.86
1479000,-82.62
1480000,-81.43
1481000,-83.1
1482000,-82.94
1483000,-84.14
1484000,-83.52
1485000,-81.96
1486000,-83.86
1487000,-82.03
1488000,-83.43
1489000,-82.62
1490000,-83.77
1491000,-82.55
1492000,-82.25
1493000,-82.55
1494000,-80.91
1495000,-81.16
1496000,-80.91
1497000,-79.51
1498000,-79.61
1499000,-79.51
1500000,-78.21
1501000,-79.51
1502000,-79.51
1503000,-80.41
1504000,-80.79
1505000,-82.03
1506000,-81.61
1507000,-81.61
1508000,-83.1
1509000,-81.16
1510000,-82.94
1511000,-82.55
1512000,-83.96
1513000,-83.77
1514000,-84.52
1515000,-83.43
1516000,-82.94
1517000,-83.86
1518000,-83.86
1519000,-81.96
1520000,-83.86
1521000,-83.77
1522000,-80.66
1523000,-82.86
1524000,-83.1
1525000,-83.61
1526000,-81.68
1527000,-82.94
1528000,-84.32
1529000,-81.96
1530000,-84.08
1531000,-81.9
1532000,-83.81
1533000,-83.91
1534000,-84.18
1535000,-82.8
1536000,-81.38
1537000,-83.91
1538000,-83.81
1539000,-83.21
1540000,-82.88
1541000,-83.21
1542000,-83.38
1543000,-82.72
1544000,-82.8
1545000,-82.57
1546000,-83.21
1547000,-82.5
1548000,-83.21
1549000,-82.57
1550000,-83.55
1551000,-82.42
1552000,-83.47
1553000,-83.81
1554000,-82.72
1555000,-82.42
1556000,-83.81
1557000,-83.04
1558000,-83.21
1559000,-82.42
1560000,-84.08
1561000,-82.88
1562000,-83.55
1563000,-83.13
1564000,-82.57
1565000,-83.55
1566000,-84.18
1567000,-82.5
1568000,-83.72
1569000,-83.21
1570000,-82.42
1571000,-82.8
1572000,-82.42
1573000,-82.72
1574000,-82.2
1575000,-82.8
1576000,-82.8
1577000,-82.27
1578000,-83.21
1579000,-83.72
1580000,-82.57
1581000,-83.21
1582000,-82.88
1583000,-84.56
1584000,-83.21
1585000,-83.21
1586000,-83.04
1587000,-83.72
1588000,-83.91
1589000,-84.27
1590000,-82.49
1591000,-84.18
1592000,-82.2
1593000,-83.04
1594000,-81.97
1595000,-79.78
1596000,-80.85
1597000,-79.13
1598000,-79.45
1599000,-78.76
1600000,-79.49
1601000,-78.97
1602000,-80.04
1603000,-79.71
1604000,-79.93
1605000,-81.41
1606000,-81.41
1607000,-82.53
1608000,-81.41
1609000,-83.07
1610000,-83.75
1611000,-83.16
1612000,-82.92
1613000,-83.16
1614000,-83.75
1615000,-83.16
1616000,-84.49
1617000,-83.75
1618000,-84.12
1619000,-82.15
1620000,-83.41
1621000,-83.94
1622000,-82.92
1623000,-83.75
1624000,-82.84
1625000,-83.5
1626000,-83.07
1627000,-83.84
1628000,-83.16
1629000,-81.65
1630000,-84.49
1631000,-81.73
1632000,-83.5
1633000,-82.23
1634000,-83.16
1635000,-83.75
1636000,-84.88
1637000,-83.84
1638000,-84.21
1639000,-83.94
1640000,-83.07
1641000,-83.59
1642000,-84.59
1643000,-84.12
1644000,-83.41
1645000,-83.59
1646000,-83.24
1647000,-84.3
1648000,-83.75
1649000,-82.3
1650000,-82.84
1651000,-84.21
1652000,-83.07
1653000,-82.84
1654000,-84.12
1655000,-83.24
1656000,-83.41
1657000,-84.12
1658000,-82.76
1659000,-84.3
1660000,-82.92
1661000,-83.41
1662000,-83.94
1663000,-82.92
1664000,-83.75
1665000,-84.69
1666000,-82.45
1667000,-84.3
1668000,-82.45
1669000,-81.97
1670000,-83.38
1671000,-83.38
1672000,-83.46
1673000,-83.13
1674000,-84.18
1675000,-82.19
1676000,-83.04
1677000,-83.13
1678000,-82.56
1679000,-83.38
1680000,-84.08
1681000,-83.13
1682000,-82.49
1683000,-82.49
1684000,-81.37
1685000,-83.91
1686000,-84.85
1687000,-82.88
1688000,-81.9
1689000,-83.04
1690000,-80.85
1691000,-83.55
1692000,-82.11
1693000,-83.04
1694000,-83.04
1695000,-80.61
1696000,-80.36
1697000,-80.36
1698000,-79.24
1699000,-78.73
1700000,-80.73
1701000,-77.97
1702000,-79.13
1703000,-79.45
1704000,-81.55
1705000,-80.01
1706000,-81.97
1707000,-82.88
1708000,-82.8
1709000,-83.13
1710000,-83.66
1711000,-83.83
1712000,-84.19
1713000,-83.66
1714000,-83.57
1715000,-82.52
1716000,-84.38
1717000,-83.92
1718000,-82.91
1719000,-82.83
1720000,-83.92
1721000,-84.29
1722000,-81.8
1723000,-84.01
1724000,-82.08
1725000,-84.57
1726000,-84.67
1727000,-83.83
1728000,-83.32
1729000,-83.24
1730000,-82.91
1731000,-83.83
1732000,-84.57
1733000,-82.91
1734000,-80.23
1735000,-84.01
1736000,-81.76
1737000,-83.86
1738000,-84.7
1739000,-83.61
1740000,-82.95
1741000,-83.18
1742000,-81.52
1743000,-84.05
1744000,-84.7
1745000,-84.8
1746000,-83.52
1747000,-83.61
1748000,-82.64
1749000,-84.7
1750000,-82.26
1751000,-83.27
1752000,-83.18
1753000,-85.19
1754000,-84.32
1755000,-84.32
1756000,-84.22
1757000,-81.98
1758000,-84.05
1759000,-83.18
1760000,-83.02
1761000,-83.61
1762000,-84.32
1763000,-83.61
1764000,-80.26
1765000,-82.34
1766000,-82.56
1767000,-84.22
1768000,-82.87
1769000,-83.18
1770000,-84.8
1771000,-83.35
1772000,-83.18
1773000,-83.86
1774000,-83.52
1775000,-83.95
1776000,-84.99
1777000,-84.41
1778000,-83.7
1779000,-84.7
1780000,-83.86
1781000,-84.99
1782000,-83.18
1783000,-84.6
1784000,-82.71
1785000,-83.52
1786000,-84.99
1787000,-84.41
1788000,-82.56
1789000,-84.41
1790000,-83.52
1791000,-83.35
1792000,-84.41
1793000,-83.69
1794000,-82.71
1795000,-80.87
1796000,-81
1797000,-79.81
1798000,-78.87
1799000,-78.87
1800000,-79.38
1801000,-79.14
1802000,-79.35
1803000,-80.12
1804000,-80.96
1805000,-82.08
1806000,-82.83
1807000,-82.91
1808000,-84.67
1809000,-83.15
1810000,-83.24
1811000,-84.76
1812000,-83.66
1813000,-83.66
1814000,-83.57
1815000,-84.57
1816000,-83.57
1817000,-81.94
1818000,-84.57
1819000,-84.19
1820000,-84.19
1821000,-83.57
1822000,-84.67
1823000,-84.76
1824000,-83.32
1825000,-82.22
1826000,-84.01
1827000,-84.29
1828000,-82.91
1829000,-83.24
1830000,-84.01
1831000,-85.16
1832000,-83.83
1833000,-82.08
1834000,-84.57
1835000,-82.83
1836000,-83.48
1837000,-84.29
1838000,-84.01
1839000,-83.92
1840000,-84.01
1841000,-82.52
1842000,-83.92
1843000,-83.48
1844000,-84.01
1845000,-84.01
1846000,-83.48
1847000,-83.83
1848000,-83.83
1849000,-83.24
1850000,-81.66
1851000,-82.99
1852000,-83.48
1853000,-82.22
1854000,-83.57
1855000,-83.48
1856000,-83.66
1857000,-83.66
1858000,-82.6
1859000,-83.15
1860000,-84.38
1861000,-83.66
1862000,-81.8
1863000,-82.52
1864000,-82.6
1865000,-83.66
1866000,-83.15
1867000,-84.76
1868000,-83.88
1869000,-85.13
1870000,-82.96
1871000,-80.68
1872000,-81.98
1873000,-82.57
1874000,-83.54
1875000,-81.98
1876000,-81.91
1877000,-83.98
1878000,-82.8
1879000,-82.96
1880000,-82.57
1881000,-83.63
1882000,-84.92
1883000,-84.25
1884000,-83.28
1885000,-83.28
1886000,-84.16
1887000,-83.98
1888000,-83.54
1889000,-83.63
1890000,-82.88
1891000,-82.96
1892000,-82.8
1893000,-83.45
1894000,-82.27
1895000,-81.91
1896000,-80.68
1897000,-79.97
1898000,-78.71
1899000,-77.52
1900000,-78.42
1901000,-79.53
1902000,-79.53
1903000,-81.32
1904000,-80.93
1905000,-81.98
1906000,-82.05
1907000,-81.45
1908000,-83.63
1909000,-83.12
1910000,-81.63
1911000,-84.25
1912000,-83.45
1913000,-84.16
1914000,-83.45
1915000,-82.88
1916000,-83.28
1917000,-83.98
1918000,-83.88
1919000,-84.16
1920000,-82.27
1921000,-83.63
1922000,-80.68
1923000,-83.79
1924000,-84.54
1925000,-82.19
1926000,-83.2
1927000,-84.34
1928000,-84.16
1929000,-83.98
1930000,-83.28
1931000,-82.96
1932000,-83.98
1933000,-84.99
1934000,-84.05
1935000,-82.94
1936000,-83.86
1937000,-83.86
1938000,-83.52
1939000,-83.95
1940000,-82.94
1941000,-84.41
1942000,-84.7
1943000,-83.27
1944000,-83.35
1945000,-83.86
1946000,-82.71
1947000,-84.41
1948000,-84.22
1949000,-82.71
1950000,-84.93
1951000,-84.17
1952000,-84.35
1953000,-83.46
1954000,-84.17
1955000,-84.17
1956000,-85.04
1957000,-84.74
1958000,-82.97
1959000,-83.13
1960000,-83.89
1961000,-85.78
1962000,-84.74
1963000,-83.13
1964000,-83.46
1965000,-83.46
1966000,-84.26
1967000,-83.46
1968000,-84.74
1969000,-84.55
1970000,-85.14
1971000,-82.5
1972000,-83.13
1973000,-83.64
1974000,-84.26
1975000,-84.93
1976000,-84.26
1977000,-85.14
1978000,-83.64
1979000,-83.21
1980000,-84.17
1981000,-84.17
1982000,-83.99
1983000,-83.21
1984000,-83.99
1985000,-85.14
1986000,-83.8
1987000,-83.64
1988000,-84.35
1989000,-84.64
1990000,-83.64
1991000,-84.93
1992000,-83.29
1993000,-82.35
1994000,-82.5
1995000,-81.33
1996000,-80.81
1997000,-81.19
1998000,-79.76
1999000,-79.5
2000000,-79.18
2001000,-79.4
2002000,-79.08
2003000,-80.17
2004000,-81.16
2005000,-81.88
2006000,-82.93
2007000,-82.54
2008000,-84.32
2009000,-83.86
2010000,-81.42
2011000,-84.61
2012000,-84.61
2013000,-82.77
2014000,-85.1
2015000,-81.6
2016000,-84.61
2017000,-82.77
2018000,-84.51
2019000,-83.86
2020000,-83.43
2021000,-84.23
2022000,-84.71
2023000,-83.43
2024000,-82.93
2025000,-85.1
2026000,-83.77
2027000,-83.09
2028000,-84.61
2029000,-83.6
2030000,-84.23
2031000,-84.71
2032000,-84.61
2033000,-84.23
2034000,-84.23
2035000,-84.61
2036000,-85.53
2037000,-82.17
2038000,-83.51
2039000,-84.23
2040000,-85.31
2041000,-83.18
2042000,-84.32
2043000,-82.85
2044000,-83.18
2045000,-84.61
2046000,-84.61
2047000,-84.23
2048000,-85.31
2049000,-83.09
2050000,-85.42
2051000,-85.53
2052000,-84.9
2053000,-83.96
2054000,-83.86
2055000,-83.96
2056000,-84.61
2057000,-84.13
2058000,-84.51
2059000,-85.31
2060000,-83.26
2061000,-84.71
2062000,-85.42
2063000,-84.61
2064000,-85
2065000,-84.2
2066000,-85.07
2067000,-84.67
2068000,-84.3
2069000,-83.25
2070000,-83.49
2071000,-85.59
2072000,-84.67
2073000,-84.2
2074000,-83.84
2075000,-83.84
2076000,-84.77
2077000,-84.2
2078000,-84.58
2079000,-84.3
2080000,-83.58
2081000,-84.77
2082000,-82.92
2083000,-82.84
2084000,-84.67
2085000,-83.67
2086000,-83.33
2087000,-84.38
2088000,-85.49
2089000,-85.49
2090000,-83.33
2091000,-84.38
2092000,-84.3
2093000,-83.58
2094000,-83.84
2095000,-80.97
2096000,-81.23
2097000,-79.67
2098000,-79.25
2099000,-79.79
2100000,-78.94
2101000,-79.36
2102000,-79.57
2103000,-79.89
2104000,-80.48
2105000,-82.38
2106000,-82.84
2107000,-84.3
2108000,-84.97
2109000,-84.67
2110000,-85.49
2111000,-83.92
2112000,-84.77
2113000,-83.25
2114000,-85.07
2115000,-83.25
2116000,-83.49
2117000,-83.67
2118000,-84.02
2119000,-82.68
2120000,-85.07
2121000,-83.16
2122000,-83.32
2123000,-85.07
2124000,-85.07
2125000,-84.38
2126000,-84.67
2127000,-83.25
2128000,-84.58
2129000,-84.3
2130000,-83.16
2131000,-85.04
2132000,-85.88
2133000,-84.93
2134000,-82.65
2135000,-84.26
2136000,-83.99
2137000,-85.13
2138000,-85.13
2139000,-84.64
2140000,-82.89
2141000,-84.26
2142000,-84.26
2143000,-84.74
2144000,-84.93
2145000,-85.13
2146000,-82.97
2147000,-83.21
2148000,-84.54
2149000,-84.64
2150000,-83.29
2151000,-84.26
2152000,-83.89
2153000,-83.8
2154000,-85.35
2155000,-84.74
2156000,-85.78
2157000,-83.8
2158000,-83.29
2159000,-84.26
2160000,-83.29
2161000,-83.89
2162000,-83.99
2163000,-85.13
2164000,-85.45
2165000,-83.8
2166000,-82.96
2167000,-83.55
2168000,-85.35
2169000,-84.54
2170000,-84.54
2171000,-84.35
2172000,-84.93
2173000,-83.8
2174000,-83.99
2175000,-84.64
2176000,-83.46
2177000,-84.26
2178000,-84.35
2179000,-84.54
2180000,-83.8
2181000,-84.74
2182000,-84.54
2183000,-83.99
2184000,-83.99
2185000,-85.04
2186000,-85.35
2187000,-84.64
2188000,-83.8
2189000,-85.13
2190000,-84.35
2191000,-83.64
2192000,-83.89
2193000,-83.55
2194000,-80.69
2195000,-81.99
2196000,-82.16
2197000,-79.08
2198000,-79.72
2199000,-80.06
2200000,-79.56
2201000,-79.88
2202000,-79.35
2203000,-81.09
2204000,-80.23
2205000,-81.94
2206000,-82.37
2207000,-82.3
2208000,-83.48
2209000,-84.57
2210000,-82.52
2211000,-84.57
2212000,-83.83
2213000,-84.19
2214000,-82.91
2215000,-85.06
2216000,-84.19
2217000,-83.31
2218000,-85.47
2219000,-82.6
2220000,-84.76
2221000,-83.15
2222000,-85.16
2223000,-83.66
2224000,-84.01
2225000,-80.71
2226000,-83.66
2227000,-84.66
2228000,-85.37
2229000,-83.83
2230000,-84.19
2231000,-83.48
2232000,-84.37
2233000,-83.31
2234000,-84.01
2235000,-84.76
2236000,-84.76
2237000,-84.19
2238000,-84.66
2239000,-83.48
2240000,-84.37
2241000,-82.6
2242000,-83.83
2243000,-84.95
2244000,-82.52
2245000,-83.31
2246000,-84.66
2247000,-83.48
2248000,-84.01
2249000,-84.95
2250000,-84.28
2251000,-83.57
2252000,-85.47
2253000,-84.57
2254000,-83.23
2255000,-84.37
2256000,-84.28
2257000,-84.19
2258000,-84.95
2259000,-83.91
2260000,-84.28
2261000,-85.16
2262000,-84.28
2263000,-84.95
2264000,-85.47
2265000,-83.15
2266000,-84.19
2267000,-84.66
2268000,-83.83
2269000,-83.91
2270000,-83.91
2271000,-83.66
2272000,-84.57
2273000,-84.66
2274000,-84.37
2275000,-84.95
2276000,-84.01
2277000,-84.95
2278000,-84.95
2279000,-84.76
2280000,-84.95
2281000,-83.91
2282000,-83.66
2283000,-84.37
2284000,-84.19
2285000,-84.66
2286000,-83.91
2287000,-82.99
2288000,-84.28
2289000,-84.01
2290000,-83.66
2291000,-84.37
2292000,-83.91
2293000,-83.31
2294000,-83.57
2295000,-82.3
2296000,-80.96
2297000,-80.46
2298000,-80.59
2299000,-78.83
2300000,-79.88
2301000,-78.74
2302000,-78.93
2303000,-80
2304000,-81.09
2305000,-82.67
2306000,-82.99
2307000,-83.15
2308000,-83.48
2309000,-82.91
2310000,-83.83
2311000,-84.01
2312000,-82.83
2313000,-84.37
2314000,-85.06
2315000,-84.76
2316000,-84.37
2317000,-82.3
2318000,-85.58
2319000,-85.47
2320000,-81.73
2321000,-83.91
2322000,-83.31
2323000,-83.66
2324000,-84.28
2325000,-83.48
2326000,-83.23
2327000,-84.28
2328000,-83.98
2329000,-82.95
2330000,-82.79
2331000,-83.2
2332000,-84.34
2333000,-83.28
2334000,-82.34
2335000,-83.62
2336000,-81.9
2337000,-84.25
2338000,-84.25
2339000,-84.15
2340000,-84.63
2341000,-82.95
2342000,-83.79
2343000,-84.15
2344000,-85.12
2345000,-83.11
2346000,-84.53
2347000,-84.34
2348000,-84.25
2349000,-84.34
2350000,-83.98
2351000,-84.34
2352000,-83.62
2353000,-84.34
2354000,-84.63
2355000,-83.62
2356000,-83.28
2357000,-81.18
2358000,-85.03
2359000,-83.2
2360000,-84.28
2361000,-83.82
2362000,-85.28
2363000,-83.39
2364000,-84.1
2365000,-82.28
2366000,-85.38
2367000,-83.14
2368000,-83.82
2369000,-84.97
2370000,-84.86
2371000,-84.97
2372000,-84.67
2373000,-83.14
2374000,-83.39
2375000,-84.57
2376000,-84.48
2377000,-84.97
2378000,-84.1
2379000,-85.38
2380000,-84.48
2381000,-84.1
2382000,-84.48
2383000,-83.06
2384000,-84.1
2385000,-84.48
2386000,-85.28
2387000,-85.07
2388000,-84.86
2389000,-83.73
2390000,-83.06
2391000,-84.86
2392000,-84.97
2393000,-83.42
2394000,-84.51
2395000,-81.29
2396000,-80.65
2397000,-80.65
2398000,-79.6
2399000,-80.29
2400000,-79.72
2401000,-79.29
2402000,-79.18
2403000,-79.5
2404000,-81.74
2405000,-82.61
2406000,-83.26
2407000,-85
2408000,-84.13
2409000,-83.77
2410000,-84.51
2411000,-84.7
2412000,-85.42
2413000,-83.95
2414000,-84.31
2415000,-84.61
2416000,-83.18
2417000,-84.23
2418000,-83.95
2419000,-84.31
2420000,-83.95
2421000,-82.02
2422000,-83.86
2423000,-84.61
2424000,-85.52
2425000,-85
2426000,-84.51
2427000,-83.77
2428000,-84.31
2429000,-84.13
2430000,-85.31
2431000,-84.31
2432000,-85.1
2433000,-83.26
2434000,-84.23
2435000,-84.23
2436000,-85.1
2437000,-85.1
2438000,-83.86
2439000,-85.42
2440000,-84.9
2441000,-85.42
2442000,-85.1
2443000,-83.18
2444000,-85.31
2445000,-85.31
2446000,-85.96
2447000,-85.42
2448000,-83.6
2449000,-81.74
2450000,-83.55
2451000,-85.36
2452000,-83.8
2453000,-84.26
2454000,-85.47
2455000,-83.71
2456000,-84.55
2457000,-83.9
2458000,-83.55
2459000,-84.21
2460000,-84.49
2461000,-83.4
2462000,-84.58
2463000,-84.49
2464000,-83.07
2465000,-84.98
2466000,-84.21
2467000,-84.21
2468000,-85.4
2469000,-84.98
2470000,-84.98
2471000,-84.68
2472000,-84.11
2473000,-83.16
2474000,-83.24
2475000,-84.29
2476000,-83.16
2477000,-84.29
2478000,-85.5
2479000,-84.88
2480000,-84.98
2481000,-85.5
2482000,-84.68
2483000,-83.49
2484000,-84.49
2485000,-85.29
2486000,-82.75
2487000,-83.49
2488000,-84.68
2489000,-83.84
2490000,-84.21
2491000,-84.68
2492000,-83.49
2493000,-84.11
2494000,-83.07
2495000,-81.65
2496000,-81.14
2497000,-80.39
2498000,-79.7
2499000,-79.7
2500000,-78.85
2501000,-79.27
2502000,-79.27
2503000,-79.8
2504000,-81.4
2505000,-82.52
2506000,-83.16
2507000,-83.58
2508000,-83.75
2509000,-83.93
2510000,-82.91
2511000,-84.68
2512000,-84.88
2513000,-84.88
2514000,-84.88
2515000,-84.88
2516000,-84.49
2517000,-84.49
2518000,-83.16
2519000,-85.4
2520000,-84.29
2521000,-84.88
2522000,-84.49
2523000,-84.49
2524000,-83.24
2525000,-84.88
2526000,-82.59
2527000,-81.65
2528000,-83.42
2529000,-83.87
2530000,-84.14
2531000,-83.34
2532000,-84.42
2533000,-84.23
2534000,-85.01
2535000,-84.04
2536000,-84.91
2537000,-83.68
2538000,-84.42
2539000,-83.87
2540000,-84.52
2541000,-84.23
2542000,-84.14
2543000,-84.61
2544000,-85.33
2545000,-84.04
2546000,-83.51
2547000,-83.68
2548000,-83.17
2549000,-81.86
2550000,-83.34
2551000,-85.33
2552000,-84.42
2553000,-84.52
2554000,-85.22
2555000,-83.86
2556000,-84.52
2557000,-83.42
2558000,-83.09
2559000,-84.14
2560000,-84.23
2561000,-81.93
2562000,-85.66
2563000,-83.86
2564000,-84.81
2565000,-84.61
2566000,-84.04
2567000,-84.61
2568000,-82.84
2569000,-84.14
2570000,-83.51
2571000,-84.23
2572000,-84.91
2573000,-84.81
2574000,-83.86
2575000,-83.09
2576000,-84.42
2577000,-84.61
2578000,-83.42
2579000,-83.77
2580000,-84.61
2581000,-83.51
2582000,-84.81
2583000,-85.33
2584000,-85.22
2585000,-83.77
2586000,-85.33
2587000,-84.42
2588000,-82.45
2589000,-84.52
2590000,-83.77
2591000,-84.52
2592000,-84.42
2593000,-83
2594000,-83.42
2595000,-81.93
2596000,-80.81
2597000,-79.63
2598000,-79.97
2599000,-79.92
2600000,-79.48
2601000,-78.85
2602000,-79.48
2603000,-80.88
2604000,-80.39
2605000,-81.27
2606000,-82.59
2607000,-83.4
2608000,-84.29
2609000,-84.68
2610000,-86.41
2611000,-83.58
2612000,-83.49
2613000,-84.58
2614000,-84.29
2615000,-85.29
2616000,-83.93
2617000,-84.87
2618000,-83.75
2619000,-84.29
2620000,-85.72
2621000,-84.58
2622000,-85.5
2623000,-84.98
2624000,-84.29
2625000,-83.93
2626000,-85.94
2627000,-85.29
2628000,-83.83
2629000,-84.11
2630000,-83.4
2631000,-83.58
2632000,-82.91
2633000,-84.2
2634000,-82.75
2635000,-84.58
2636000,-82.91
2637000,-84.58
2638000,-85.39
2639000,-85.08
2640000,-84.87
2641000,-83.83
2642000,-84.58
2643000,-82.22
2644000,-84.98
2645000,-84.29
2646000,-85.08
2647000,-83.23
2648000,-84.49
2649000,-83.4
2650000,-85.29
2651000,-83.75
2652000,-84.68
2653000,-84.2
2654000,-84.29
2655000,-84.49
2656000,-83.4
2657000,-84.11
2658000,-84.68
2659000,-84.2
2660000,-81.93
2661000,-83.75
2662000,-83.93
2663000,-84.49
2664000,-85.5
2665000,-83.83
2666000,-84.2
2667000,-83.58
2668000,-84.98
2669000,-85.26
2670000,-84.45
2671000,-82.56
2672000,-83.8
2673000,-83.9
2674000,-82.79
2675000,-83.12
2676000,-83.9
2677000,-84.45
2678000,-84.26
2679000,-84.17
2680000,-83.03
2681000,-83.37
2682000,-84.65
2683000,-83.46
2684000,-85.91
2685000,-84.95
2686000,-85.69
2687000,-85.26
2688000,-85.91
2689000,-84.65
2690000,-84.07
2691000,-84.55
2692000,-83.71
2693000,-83.8
2694000,-82.56
2695000,-82.26
2696000,-81.9
2697000,-79.66
2698000,-79.55
2699000,-79.13
2700000,-80
2701000,-79.66
2702000,-79.88
2703000,-81.1
2704000,-80.72
2705000,-81.54
2706000,-82.56
2707000,-83.2
2708000,-83.46
2709000,-83.8
2710000,-83.54
2711000,-84.84
2712000,-84.45
2713000,-83.8
2714000,-84.07
2715000,-85.79
2716000,-84.84
2717000,-85.04
2718000,-84.65
2719000,-83.71
2720000,-83.12
2721000,-84.26
2722000,-84.65
2723000,-84.26
2724000,-85.26
2725000,-84.95
2726000,-85.36
2727000,-85.04
2728000,-83.03
2729000,-85.36
2730000,-84.26
2731000,-85.47
2732000,-85.04
2733000,-84.65
2734000,-85.47
2735000,-84.55
2736000,-86.14
2737000,-82.72
2738000,-84.49
2739000,-85.94
2740000,-84.87
2741000,-83.4
2742000,-83.07
2743000,-84.87
2744000,-83.23
2745000,-83.58
2746000,-84.68
2747000,-83.93
2748000,-85.08
2749000,-83.83
2750000,-84.98
2751000,-85.39
2752000,-83.23
2753000,-85.08
2754000,-82.91
2755000,-84.68
2756000,-85.39
2757000,-83.4
2758000,-85.08
2759000,-84.68
2760000,-84.2
2761000,-84.29
2762000,-85.5
2763000,-86.17
2764000,-84.98
2765000,-85.83
2766000,-82.75
2767000,-84.87
2768000,-84.11
2769000,-83.15
2770000,-85.5
2771000,-84.58
2772000,-84.87
2773000,-84.49
2774000,-83.58
2775000,-85.29
2776000,-84.49
2777000,-82.59
2778000,-84.58
2779000,-85.39
2780000,-83.4
2781000,-82.59
2782000,-84.29
2783000,-84.68
2784000,-84.49
2785000,-85.5
2786000,-83.07
2787000,-84.49
2788000,-85.29
2789000,-85.08
2790000,-84.87
2791000,-83.58
2792000,-84.11
2793000,-83.49
2794000,-82.75
2795000,-81.4
2796000,-80.88
2797000,-80.63
2798000,-79.58
2799000,-78.75
2800000,-78.85
2801000,-79.26
2802000,-81.13
2803000,-80.63
2804000,-81.72
2805000,-82.29
2806000,-83.15
2807000,-84.29
2808000,-84.29
2809000,-83.49
2810000,-85.08
2811000,-84.49
2812000,-84.68
2813000,-83.83
2814000,-85.08
2815000,-84.87
2816000,-83.93
2817000,-84.98
2818000,-84.87
2819000,-83.74
2820000,-84.68
2821000,-84.2
2822000,-84.58
2823000,-84.98
2824000,-84.87
2825000,-84.87
2826000,-84.68
2827000,-84.58
2828000,-84.98
2829000,-84.11
2830000,-82.29
2831000,-84.68
2832000,-84.68
2833000,-83.74
2834000,-84.11
2835000,-83.15
2836000,-84.29
2837000,-83.83
2838000,-83.83
2839000,-81.86
2840000,-84.29
2841000,-84.11
2842000,-85.83
2843000,-84.68
2844000,-84.2
2845000,-84.2
2846000,-85.72
2847000,-85.5
2848000,-85.29
2849000,-84.58
2850000,-85.09
2851000,-84.31
2852000,-83.94
2853000,-83.6
2854000,-84.4
2855000,-84.79
2856000,-83.69
2857000,-84.59
2858000,-83.85
2859000,-84.04
2860000,-83.26
2861000,-85.61
2862000,-84.79
2863000,-85.83
2864000,-85.61
2865000,-85.19
2866000,-85.19
2867000,-86.05
2868000,-84.79
2869000,-84.69
2870000,-84.69
2871000,-83.69
2872000,-86.05
2873000,-85.5
2874000,-84.31
2875000,-83.26
2876000,-85.44
2877000,-84.62
2878000,-84.53
2879000,-85.87
2880000,-85.33
2881000,-84.33
2882000,-84.25
2883000,-85.44
2884000,-83.44
2885000,-84.25
2886000,-84.53
2887000,-84.15
2888000,-84.62
2889000,-83.11
2890000,-85.76
2891000,-85.33
2892000,-83.11
2893000,-83.97
2894000,-82.79
2895000,-82.26
2896000,-80.67
2897000,-81.44
2898000,-79.1
2899000,-79.1
2900000,-79.96
2901000,-80.07
2902000,-79.2
2903000,-81.31
2904000,-81.44
2905000,-82.56
2906000,-82.56
2907000,-84.53
2908000,-85.02
2909000,-82.79
2910000,-85.12
2911000,-85.12
2912000,-85.33
2913000,-83.44
2914000,-84.92
2915000,-83.62
2916000,-83.2
2917000,-85.44
2918000,-84.53
2919000,-84.25
2920000,-83.11
2921000,-84.72
2922000,-84.62
2923000,-84.92
2924000,-83.87
2925000,-84.72
2926000,-85.02
2927000,-85.44
2928000,-84.62
2929000,-85.02
2930000,-83.44
2931000,-85.12
2932000,-85.76
2933000,-85.12
2934000,-84.92
2935000,-84.25
2936000,-84.72
2937000,-83.53
2938000,-84.33
2939000,-83.28
2940000,-83.62
2941000,-84.92
2942000,-83.85
2943000,-86.05
2944000,-83.26
2945000,-84.4
2946000,-85.5
2947000,-85.61
2948000,-85.61
2949000,-84.31
2950000,-85.4
2951000,-84.4
2952000,-82.33
2953000,-83.17
2954000,-85.18
2955000,-84.69
2956000,-84.69
2957000,-84.59
2958000,-84.31
2959000,-84.04
2960000,-84.31
2961000,-84.4
2962000,-86.76
2963000,-83.69
2964000,-84.59
2965000,-83.51
2966000,-83.51
2967000,-84.79
2968000,-83.94
2969000,-85.61
2970000,-84.4
2971000,-84.59
2972000,-83.94
2973000,-86.05
2974000,-83.6
2975000,-84.4
2976000,-83.85
2977000,-85.4
2978000,-83.51
2979000,-84.98
2980000,-84.69
2981000,-84.69
2982000,-84.98
2983000,-85.09
2984000,-85.4
2985000,-85.4
2986000,-85.5
2987000,-85.4
2988000,-84.98
2989000,-84.04
2990000,-83.17
2991000,-84.31
2992000,-84.98
2993000,-83.34
2994000,-83.85
2995000,-82.4
2996000,-82.4
2997000,-80.38
2998000,-79.91
2999000,-79.37
3000000,-78.57
3001000,-79.91
3002000,-79.06
3003000,-80.74
3004000,-81.75
3005000,-82.33
3006000,-81.12
3007000,-84.21
3008000,-84.98
3009000,-84.59
3010000,-85.09
3011000,-82.04
3012000,-84.59
3013000,-84.59
3014000,-84.69
3015000,-85.09
3016000,-84.4
3017000,-84.21
3018000,-85.18
3019000,-83.6
3020000,-85.09
3021000,-85.18
3022000,-84.59
3023000,-85.4
3024000,-84.79
3025000,-85.5
3026000,-84.31
3027000,-85.18
3028000,-85.09
3029000,-84.59
3030000,-84.21
3031000,-84.69
3032000,-83.26
3033000,-83.85
3034000,-85.5
3035000,-82.94
3036000,-84.98
3037000,-86.28
3038000,-82.55
3039000,-86.4
3040000,-84.59
3041000,-84.69
3042000,-85.18
3043000,-82.4
3044000,-85.18
3045000,-84.98
3046000,-86.4
3047000,-84.79
3048000,-84.21
3049000,-83.01
3050000,-83.26
3051000,-84.69
3052000,-84.4
3053000,-84.21
3054000,-84.21
3055000,-84.98
3056000,-84.59
3057000,-85.4
3058000,-85.4
3059000,-84.4
3060000,-84.31
3061000,-84.59
3062000,-83.01
3063000,-83.51
3064000,-83.85
3065000,-84.79
3066000,-84.98
3067000,-84.4
3068000,-83.34
3069000,-83.17
3070000,-84.21
3071000,-85.5
3072000,-85.4
3073000,-85.36
3074000,-84.75
3075000,-84.37
3076000,-85.47
3077000,-83.91
3078000,-83.23
3079000,-85.15
3080000,-85.36
3081000,-85.9
3082000,-84.37
3083000,-83.65
3084000,-84.37
3085000,-85.9
3086000,-84.75
3087000,-85.57
3088000,-84.75
3089000,-84.66
3090000,-84.75
3091000,-84.37
3092000,-84.75
3093000,-84
3094000,-83.47
3095000,-81.65
3096000,-81.21
3097000,-79.99
3098000,-80.46
3099000,-80.11
3100000,-78.63
3101000,-79.34
3102000,-79.34
3103000,-81.08
3104000,-80.22
3105000,-82
3106000,-82.98
3107000,-84.28
3108000,-83.65
3109000,-84.95
3110000,-83.82
3111000,-84.28
3112000,-84.28
3113000,-84.95
3114000,-84.28
3115000,-84.75
3116000,-82.98
3117000,-84.95
3118000,-85.05
3119000,-86.48
3120000,-84.18
3121000,-85.57
3122000,-85.57
3123000,-86.48
3124000,-83.91
3125000,-84.95
3126000,-84.56
3127000,-85.05
3128000,-84.75
3129000,-84.28
3130000,-83.56
3131000,-85.05
3132000,-82.98
3133000,-85.57
3134000,-85.79
3135000,-84.75
3136000,-85.05
3137000,-84.66
3138000,-84.66
3139000,-84.75
3140000,-85.4
3141000,-84.98
3142000,-84.04
3143000,-85.4
3144000,-84.04
3145000,-83.34
3146000,-84.59
3147000,-85.5
3148000,-86.52
3149000,-84.21
3150000,-84.63
3151000,-84.34
3152000,-82.96
3153000,-85.13
3154000,-83.79
3155000,-83.98
3156000,-85.03
3157000,-84.16
3158000,-85.13
3159000,-85.44
3160000,-85.77
3161000,-85.99
3162000,-83.98
3163000,-85.88
3164000,-84.73
3165000,-85.34
3166000,-85.03
3167000,-84.92
3168000,-84.25
3169000,-84.34
3170000,-84.73
3171000,-83.79
3172000,-83.98
3173000,-85.44
3174000,-85.44
3175000,-85.13
3176000,-84.92
3177000,-84.63
3178000,-84.92
3179000,-85.44
3180000,-85.13
3181000,-86.22
3182000,-85.77
3183000,-85.55
3184000,-84.92
3185000,-84.25
3186000,-84.92
3187000,-84.34
3188000,-83.63
3189000,-84.34
3190000,-84.34
3191000,-83.28
3192000,-85.34
3193000,-81.45
3194000,-83.79
3195000,-83.28
3196000,-79.97
3197000,-80.68
3198000,-79.1
3199000,-79.63
3200000,-79.42
3201000,-79.75
3202000,-80.43
3203000,-80.08
3204000,-81.62
3205000,-82.57
3206000,-82.84
3207000,-83.42
3208000,-83.95
3209000,-83.25
3210000,-85.09
3211000,-86.19
3212000,-84.89
3213000,-85
3214000,-85.41
3215000,-86.42
3216000,-85
3217000,-84.5
3218000,-85.74
3219000,-85
3220000,-85.09
3221000,-85
3222000,-84.7
3223000,-85.3
3224000,-85.74
3225000,-85.09
3226000,-84.7
3227000,-83.42
3228000,-85.96
3229000,-83.59
3230000,-83.95
3231000,-83.95
3232000,-84.7
3233000,-85.3
3234000,-84.31
3235000,-84.5
3236000,-85.3
3237000,-84.12
3238000,-85.41
3239000,-85
3240000,-83.51
3241000,-85
3242000,-85.52
3243000,-85.41
3244000,-83.85
3245000,-82.84
3246000,-85.74
3247000,-85.09
3248000,-84.6
3249000,-85.52
3250000,-85.52
3251000,-84.6
3252000,-85.52
3253000,-85.09
3254000,-84.22
3255000,-85.84
3256000,-85.3
3257000,-84.7
3258000,-84.6
3259000,-83.95
3260000,-84.12
3261000,-84.6
3262000,-85.41
3263000,-84.12
3264000,-85.74
3265000,-85.52
3266000,-85
3267000,-83.25
3268000,-84.6
3269000,-83.95
3270000,-84.22
3271000,-83.76
3272000,-86.19
3273000,-85.41
3274000,-85.96
3275000,-83.76
3276000,-84.5
3277000,-84.7
3278000,-84.7
3279000,-84.89
3280000,-85.3
3281000,-83.95
3282000,-84.89
3283000,-84.89
3284000,-85.41
3285000,-84.89
3286000,-84.31
3287000,-85.84
3288000,-84.22
3289000,-84.6
3290000,-84.31
3291000,-83.42
3292000,-84.6
3293000,-83.95
3294000,-83.08
3295000,-82.23
3296000,-81.15
3297000,-81.03
3298000,-80.05
3299000,-79.6
3300000,-79.71
3301000,-79.28
3302000,-79.93
3303000,-80.65
3304000,-81.59
3305000,-81.73
3306000,-83.08
3307000,-83.95
3308000,-84.5
3309000,-83.85
3310000,-84.5
3311000,-84.7
3312000,-83.76
3313000,-84.22
3314000,-85.3
3315000,-84.22
3316000,-84.99
3317000,-85.41
3318000,-85.84
3319000,-84.7
3320000,-84.7
3321000,-84.7
3322000,-84.6
3323000,-84.6
3324000,-84.89
3325000,-84.6
3326000,-85.41
3327000,-83.59
3328000,-85.41
3329000,-85.3
3330000,-83.95
3331000,-85.41
3332000,-84.5
3333000,-85.96
3334000,-83.59
3335000,-84.99
3336000,-85.74
3337000,-84.99
3338000,-85.09
3339000,-85.38
3340000,-83.73
3341000,-85.06
3342000,-85.38
3343000,-85.92
3344000,-85.48
3345000,-84.47
3346000,-84.96
3347000,-84.86
3348000,-85.27
3349000,-83.47
3350000,-85.38
3351000,-85.7
3352000,-84.86
3353000,-84.56
3354000,-84.09
3355000,-83.81
3356000,-85.38
3357000,-83.73
3358000,-83.47
3359000,-84.19
3360000,-84.66
3361000,-83.91
3362000,-84.19
3363000,-83.47
3364000,-85.38
3365000,-84.86
3366000,-86.39
3367000,-85.06
3368000,-85.48
3369000,-83.81
3370000,-83.91
3371000,-84.66
3372000,-85.06
3373000,-84.66
3374000,-84.66
3375000,-83.91
3376000,-85.27
3377000,-84.96
3378000,-84.56
3379000,-85.48
3380000,-84.66
3381000,-84.66
3382000,-84.86
3383000,-85.48
3384000,-84.47
3385000,-83.91
3386000,-86.28
3387000,-84.86
3388000,-83.73
3389000,-84.96
3390000,-85.48
3391000,-84.18
3392000,-84.56
3393000,-83.81
3394000,-83.47
3395000,-82.2
3396000,-81.12
3397000,-80.86
3398000,-80.13
3399000,-79.68
3400000,-79.46
3401000,-78.94
3402000,-79.56
3403000,-79.78
3404000,-80.77
3405000,-83.59
3406000,-83.17
3407000,-82.92
3408000,-83.94
3409000,-82.84
3410000,-85.74
3411000,-83.59
3412000,-84.69
3413000,-85.96
3414000,-84.89
3415000,-84.5
3416000,-84.6
3417000,-84.99
3418000,-83.42
3419000,-86.18
3420000,-83.85
3421000,-83.42
3422000,-85.96
3423000,-84.5
3424000,-86.18
3425000,-84.12
3426000,-84.99
3427000,-85.51
3428000,-84.31
3429000,-86.31
3430000,-84.69
3431000,-85.73
3432000,-84.69
3433000,-84.31
3434000,-84.69
3435000,-83.76
3436000,-85.73
3437000,-84.12
3438000,-84.6
3439000,-84.99
3440000,-83.25
3441000,-85.3
3442000,-84.89
3443000,-85.09
3444000,-85.3
3445000,-84.5
3446000,-84.22
3447000,-84.89
3448000,-84.22
3449000,-84.89
3450000,-84.94
3451000,-85.68
3452000,-84.64
3453000,-83.19
3454000,-84.16
3455000,-85.46
3456000,-85.9
3457000,-86.25
3458000,-86.62
3459000,-84.54
3460000,-85.36
3461000,-84.94
3462000,-85.25
3463000,-84.83
3464000,-84.25
3465000,-85.68
3466000,-85.46
3467000,-84.16
3468000,-85.04
3469000,-84.16
3470000,-84.25
3471000,-85.25
3472000,-84.64
3473000,-84.45
3474000,-85.68
3475000,-84.25
3476000,-84.45
3477000,-84.45
3478000,-84.83
3479000,-84.54
3480000,-86.86
3481000,-84.54
3482000,-84.16
3483000,-85.04
3484000,-83.45
3485000,-85.46
3486000,-85.79
3487000,-85.04
3488000,-84.16
3489000,-85.25
3490000,-85.46
3491000,-84.83
3492000,-84.25
3493000,-83.79
3494000,-83.45
3495000,-81.36
3496000,-81.61
3497000,-80.23
3498000,-80.11
3499000,-79.01
3500000,-79.01
3501000,-78.04
3502000,-79.76
3503000,-80.84
3504000,-81.68
3505000,-80.72
3506000,-83.36
3507000,-82.71
3508000,-84.25
3509000,-85.04
3510000,-84.64
3511000,-84.07
3512000,-83.89
3513000,-85.46
3514000,-85.9
3515000,-84.45
3516000,-85.04
3517000,-82.79
3518000,-84.64
3519000,-84.45
3520000,-83.89
3521000,-85.25
3522000,-84.83
3523000,-82.48
3524000,-85.04
3525000,-84.83
3526000,-84.07
3527000,-84.07
3528000,-85.04
3529000,-83.79
3530000,-84.25
3531000,-84.07
3532000,-84.83
3533000,-84.64
3534000,-84.16
3535000,-84.16
3536000,-85.04
3537000,-85.35
3538000,-84.94
3539000,-85.68
3540000,-84.54
3541000,-84.03
3542000,-84.13
3543000,-85.22
3544000,-84.61
3545000,-84.91
3546000,-84.61
3547000,-86.1
3548000,-84.41
3549000,-84.91
3550000,-84.8
3551000,-84.03
3552000,-85
3553000,-84.41
3554000,-83.86
3555000,-84.91
3556000,-84.61
3557000,-84.61
3558000,-84.8
3559000,-85.43
3560000,-84.61
3561000,-85.22
3562000,-84.61
3563000,-85.32
3564000,-82.75
3565000,-85.22
3566000,-84.41
3567000,-86.22
3568000,-83.76
3569000,-83.86
3570000,-85
3571000,-84.61
3572000,-85.32
3573000,-84.51
3574000,-84.91
3575000,-84.41
3576000,-84.91
3577000,-84.13
3578000,-85.43
3579000,-83.67
3580000,-83.08
3581000,-85.32
3582000,-82.37
3583000,-83.42
3584000,-85.65
3585000,-86.1
3586000,-83.67
3587000,-83.86
3588000,-85
3589000,-85.43
3590000,-85.65
3591000,-84.61
3592000,-85.65
3593000,-84.03
3594000,-84.41
3595000,-82.22
3596000,-80.81
3597000,-80.43
3598000,-79.73
3599000,-79.19
3600000,-79.84
3601000,-79.51
3602000,-79.84
3603000,-79.96
3604000,-81.64
3605000,-81.78
3606000,-82.52
3607000,-83.16
3608000,-83.86
3609000,-84.03
3610000,-84.22
3611000,-84.61
3612000,-82.83
3613000,-85.65
3614000,-85.32
3615000,-84.91
3616000,-85
3617000,-85.65
3618000,-83.08
3619000,-86.33
3620000,-84.8
3621000,-85.65
3622000,-85
3623000,-84.51
3624000,-84.8
3625000,-83.86
3626000,-83.67
3627000,-84.22
3628000,-84.8
3629000,-86.22
3630000,-85.65
3631000,-84.41
3632000,-83.42
3633000,-84.41
3634000,-84.8
3635000,-85
3636000,-83.08
3637000,-84.91
3638000,-86.1
3639000,-85
3640000,-84.8
3641000,-84.51
3642000,-84.41
3643000,-84.61
3644000,-84.51
3645000,-86.22
3646000,-84.61
3647000,-84.61
3648000,-85.43
3649000,-84.41
3650000,-85.21
3651000,-85
3652000,-85.21
3653000,-84.22
3654000,-84.91
3655000,-84.03
3656000,-84.91
3657000,-84.22
3658000,-85.65
3659000,-84.61
3660000,-84.8
3661000,-85.75
3662000,-85.43
3663000,-83.76
3664000,-83.42
3665000,-84.13
3666000,-85.75
3667000,-85.21
3668000,-85.75
3669000,-83.86
3670000,-86.7
3671000,-84.61
3672000,-85.75
3673000,-85.65
3674000,-84.91
3675000,-85.43
3676000,-84.8
3677000,-82.99
3678000,-84.8
3679000,-84.03
3680000,-84.8
3681000,-85.87
3682000,-82.67
3683000,-84.51
3684000,-85
3685000,-83.33
3686000,-83.67
3687000,-82.83
3688000,-84.03
3689000,-84.8
3690000,-83.67
3691000,-85.87
3692000,-83.86
3693000,-83.08
3694000,-82.67
3695000,-81.32
3696000,-80.94
3697000,-79.96
3698000,-78.58
3699000,-79.4
3700000,-80.8
3701000,-79.51
3702000,-79.51
3703000,-80.56
3704000,-79.73
3705000,-82.37
3706000,-83.67
3707000,-83.76
3708000,-84.41
3709000,-84.13
3710000,-85.75
3711000,-84.13
3712000,-84.8
3713000,-83.16
3714000,-83.33
3715000,-83.67
3716000,-84.91
3717000,-84.91
3718000,-84.13
3719000,-84.61
3720000,-83.33
3721000,-84.91
3722000,-85
3723000,-85.32
3724000,-85.21
3725000,-84.13
3726000,-84.61
3727000,-85.43
3728000,-84.13
3729000,-85.21
3730000,-85.75
3731000,-84.51
3732000,-85.21
3733000,-85.21
3734000,-84.61
3735000,-85.21
3736000,-84.03
3737000,-85
3738000,-83.16
3739000,-84.8
3740000,-84.61
3741000,-84.8
3742000,-86.7
3743000,-85.75
3744000,-85.75
3745000,-85
3746000,-84.2
3747000,-85.49
3748000,-85.49
3749000,-85.93
3750000,-84.2
3751000,-83.92
3752000,-85.39
3753000,-85.49
3754000,-85.39
3755000,-86.29
3756000,-85.07
3757000,-84.87
3758000,-84.97
3759000,-84.87
3760000,-84.28
3761000,-84.97
3762000,-84.28
3763000,-84.57
3764000,-85.49
3765000,-83.74
3766000,-84.67
3767000,-85.39
3768000,-85.82
3769000,-85.28
3770000,-85.39
3771000,-83.57
3772000,-85.49
3773000,-85.71
3774000,-84.48
3775000,-85.28
3776000,-84.67
3777000,-83.39
3778000,-85.28
3779000,-85.07
3780000,-83.82
3781000,-84.87
3782000,-85.39
3783000,-83.48
3784000,-84.48
3785000,-84.48
3786000,-85.39
3787000,-84.2
3788000,-84.48
3789000,-85.07
3790000,-84.28
3791000,-83.82
3792000,-85.71
3793000,-84.67
3794000,-83.82
3795000,-81.99
3796000,-81.85
3797000,-81.39
3798000,-79.57
3799000,-79.79
3800000,-78.84
3801000,-79.04
3802000,-80.38
3803000,-80.38
3804000,-82.21
3805000,-81.57
3806000,-83.15
3807000,-83.22
3808000,-82.28
3809000,-84.28
3810000,-85.49
3811000,-84.97
3812000,-84.19
3813000,-85.93
3814000,-84.19
3815000,-84.1
3816000,-84.97
3817000,-84.87
3818000,-85.93
3819000,-83.57
3820000,-83.82
3821000,-84.87
3822000,-83.82
3823000,-83.92
3824000,-84.1
3825000,-83.82
3826000,-84.67
3827000,-85.39
3828000,-85.28
3829000,-85.28
3830000,-83.48
3831000,-84.28
3832000,-85.28
3833000,-84.87
3834000,-85.49
3835000,-85.49
3836000,-83.92
3837000,-84.1
3838000,-85.71
3839000,-84.97
3840000,-85.28
3841000,-85.28
3842000,-84.97
3843000,-86.65
3844000,-84.67
3845000,-85.39
3846000,-84.48
3847000,-84.28
3848000,-84.97
3849000,-85.28
3850000,-84.57
3851000,-84.19
3852000,-85.28
3853000,-84.19
3854000,-84.28
3855000,-85.28
3856000,-84.48
3857000,-84.1
3858000,-85.49
3859000,-85.39
3860000,-86.16
3861000,-86.16
3862000,-85.28
3863000,-85.07
3864000,-85.49
3865000,-85.07
3866000,-85.07
3867000,-84.86
3868000,-84.86
3869000,-85.28
3870000,-84.67
3871000,-86.16
3872000,-85.28
3873000,-82.51
3874000,-86.28
3875000,-85.07
3876000,-85.07
3877000,-85.82
3878000,-85.39
3879000,-85.07
3880000,-85.49
3881000,-84.1
3882000,-84.1
3883000,-83.82
3884000,-84.57
3885000,-84.67
3886000,-85.82
3887000,-82.58
3888000,-84.19
3889000,-84.57
3890000,-85.71
3891000,-83.14
3892000,-84.97
3893000,-82.21
3894000,-83.14
3895000,-81.26
3896000,-81.92
3897000,-77.71
3898000,-80.14
3899000,-78.45
3900000,-80.38
3901000,-78.26
3902000,-80.38
3903000,-80.14
3904000,-81.26
3905000,-82.82
3906000,-81.26
3907000,-83.14
3908000,-85.28
3909000,-84.1
3910000,-83.22
3911000,-85.07
3912000,-84.97
3913000,-85.49
3914000,-84.97
3915000,-84.97
3916000,-84.48
3917000,-83.48
3918000,-85.49
3919000,-84.57
3920000,-84.28
3921000,-85.82
3922000,-83.92
3923000,-83.92
3924000,-85.49
3925000,-84.1
3926000,-85.71
3927000,-84.19
3928000,-83.06
3929000,-84.67
3930000,-84.57
3931000,-86.28
3932000,-85.49
3933000,-86.28
3934000,-85.07
3935000,-85.07
3936000,-83.14
3937000,-85.07
3938000,-85.93
3939000,-84.28
3940000,-85.82
3941000,-85.07
3942000,-85.71
3943000,-86.16
3944000,-84.67
3945000,-85.71
3946000,-84.67
3947000,-84.67
3948000,-86.28
3949000,-84.19
3950000,-83.74
3951000,-85.07
3952000,-85.71
3953000,-85.28
3954000,-85.32
3955000,-83.67
3956000,-85.75
3957000,-86.09
3958000,-83.41
3959000,-84.9
3960000,-85.64
3961000,-84.13
3962000,-85.42
3963000,-84.03
3964000,-84.22
3965000,-84.13
3966000,-85.75
3967000,-84.03
3968000,-84.13
3969000,-85
3970000,-85.42
3971000,-83.85
3972000,-83.5
3973000,-85.64
3974000,-85
3975000,-85.75
3976000,-85.86
3977000,-85
3978000,-84.51
3979000,-84.41
3980000,-84.22
3981000,-84.6
3982000,-84.8
3983000,-84.03
3984000,-85
3985000,-85
3986000,-84.9
3987000,-83.5
3988000,-84.9
3989000,-85.64
3990000,-84.03
3991000,-85.32
3992000,-84.41
3993000,-83.08
3994000,-83.16
3995000,-82.83
3996000,-80.68
3997000,-79.84
3998000,-80.8
3999000,-78.77
4000000,-79.96
4001000,-79.62
4002000,-79.4
4003000,-79.19
4004000,-81.19
4005000,-82.14
4006000,-83.41
4007000,-84.41
4008000,-83.41
4009000,-83.85
4010000,-84.13
4011000,-85.32
4012000,-83.08
4013000,-85
4014000,-84.51
4015000,-85.21
4016000,-84.13
4017000,-84.8
4018000,-84.8
4019000,-84.9
4020000,-84.6
4021000,-84.41
4022000,-85.64
4023000,-84.21
4024000,-83.92
4025000,-84.48
4026000,-85.07
4027000,-86.16
4028000,-85.38
4029000,-85.82
4030000,-83.22
4031000,-85.49
4032000,-85.38
4033000,-85.38
4034000,-85.93
4035000,-84.28
4036000,-83.39
4037000,-85.49
4038000,-85.28
4039000,-85.49
4040000,-84.1
4041000,-84.57
4042000,-85.71
4043000,-84.97
4044000,-85.49
4045000,-85.93
4046000,-86.16
4047000,-84.57
4048000,-85.71
4049000,-84.1
4050000,-85.82
4051000,-86.4
4052000,-85.49
4053000,-85.38
4054000,-85.49
4055000,-86.16
4056000,-84.67
4057000,-84.86
4058000,-86.4
4059000,-84.57
4060000,-85.93
4061000,-83.82
4062000,-83.82
4063000,-84.86
4064000,-85.49
4065000,-84.57
4066000,-85.71
4067000,-85.07
4068000,-85.71
4069000,-85.93
4070000,-85.93
4071000,-84.86
4072000,-85.93
4073000,-83.57
4074000,-85.38
4075000,-85.38
4076000,-83.73
4077000,-84.97
4078000,-85.28
4079000,-84.97
4080000,-85.49
4081000,-86.04
4082000,-85.93
4083000,-85.93
4084000,-84.21
4085000,-85.18
4086000,-84.97
4087000,-85.08
4088000,-85.49
4089000,-85.82
4090000,-84.78
4091000,-83.84
4092000,-84.58
4093000,-84.78
4094000,-82.62
4095000,-82.39
4096000,-81.5
4097000,-80.73
4098000,-80.48
4099000,-79.15
4100000,-79.26
4101000,-78.76
4102000,-79.15
4103000,-81.67
4104000,-82.32
4105000,-81.75
4106000,-82.03
4107000,-84.58
4108000,-84.58
4109000,-84.3
4110000,-85.18
4111000,-85.08
4112000,-83.33
4113000,-84.68
4114000,-83.93
4115000,-83.33
4116000,-84.39
4117000,-84.97
4118000,-84.97
4119000,-85.08
4120000,-84.78
4121000,-84.97
4122000,-84.78
4123000,-84.68
4124000,-84.21
4125000,-83.93
4126000,-85.6
4127000,-85.08
4128000,-85.39
4129000,-84.97
4130000,-85.18
4131000,-84.97
4132000,-84.21
4133000,-84.39
4134000,-84.58
4135000,-84.58
4136000,-83.33
4137000,-85.49
4138000,-84.3
4139000,-85.6
4140000,-84.39
4141000,-84.3
4142000,-85.82
4143000,-85.08
4144000,-85.82
4145000,-85.18
4146000,-85.49
4147000,-86.39
4148000,-84.3
4149000,-85.39
4150000,-85.08
4151000,-86.27
4152000,-84.21
4153000,-84.3
4154000,-84.21
4155000,-83.93
4156000,-84.39
4157000,-86.04
4158000,-85.6
4159000,-83.55
4160000,-85.35
4161000,-84.94
4162000,-85.14
4163000,-85.57
4164000,-84.27
4165000,-85.14
4166000,-84.94
4167000,-86.01
4168000,-84.36
4169000,-85.89
4170000,-83.55
4171000,-83.47
4172000,-84.94
4173000,-83.9
4174000,-85.57
4175000,-83.64
4176000,-84.94
4177000,-85.57
4178000,-85.89
4179000,-85.14
4180000,-86.3
4181000,-85.4
4182000,-84.59
4183000,-86.18
4184000,-84.99
4185000,-85.4
4186000,-84.99
4187000,-84.88
4188000,-85.08
4189000,-85.51
4190000,-85.83
4191000,-83.59
4192000,-84.3
4193000,-82.84
4194000,-83.75
4195000,-82.23
4196000,-80.39
4197000,-80.89
4198000,-80.28
4199000,-80.39
4200000,-79.48
4201000,-79.59
4202000,-79.71
4203000,-81.14
4204000,-81.72
4205000,-82.6
4206000,-83.84
4207000,-83.94
4208000,-84.88
4209000,-85.51
4210000,-85.51
4211000,-85.95
4212000,-85.3
4213000,-85.95
4214000,-85.95
4215000,-84.49
4216000,-84.11
4217000,-85.95
4218000,-86.91
4219000,-85.08
4220000,-84.88
4221000,-85.51
4222000,-82.53
4223000,-85.4
4224000,-85.51
4225000,-85.44
4226000,-85.98
4227000,-83.53
4228000,-85.76
4229000,-86.21
4230000,-85.12
4231000,-85.98
4232000,-83.87
4233000,-86.21
4234000,-83.87
4235000,-85.33
4236000,-85.54
4237000,-85.12
4238000,-86.33
4239000,-85.76
4240000,-85.98
4241000,-85.33
4242000,-85.44
4243000,-83.44
4244000,-86.21
4245000,-85.76
4246000,-85.44
4247000,-86.7
4248000,-84.53
4249000,-85.54
4250000,-84.72
4251000,-85.54
4252000,-85.76
4253000,-85.87
4254000,-84.53
4255000,-86.94
4256000,-84.15
4257000,-84.91
4258000,-83.87
4259000,-86.21
4260000,-85.33
4261000,-85.76
4262000,-83.2
4263000,-84.33
4264000,-85.44
4265000,-82.87
4266000,-86.33
4267000,-84.33
4268000,-84.62
4269000,-85.02
4270000,-85.87
4271000,-84.72
4272000,-85.33
4273000,-85.12
4274000,-85.12
4275000,-86.45
4276000,-85.76
4277000,-84.62
4278000,-84.91
4279000,-84.33
4280000,-84.62
4281000,-85.12
4282000,-85.44
4283000,-86.33
4284000,-84.72
4285000,-87.2
4286000,-84.53
4287000,-83.53
4288000,-85.44
4289000,-85.33
4290000,-83.87
4291000,-85.54
4292000,-85.54
4293000,-83.87
4294000,-84.53
4295000,-82.87
4296000,-82.63
4297000,-80.92
4298000,-80.92
4299000,-79.96
4300000,-79.62
4301000,-79.96
4302000,-80.43
4303000,-80.92
4304000,-82.04
4305000,-83.11
4306000,-82.26
4307000,-82.87
4308000,-83.97
4309000,-85.02
4310000,-86.33
4311000,-86.33
4312000,-84.72
4313000,-85.33
4314000,-84.15
4315000,-86.45
4316000,-85.87
4317000,-84.91
4318000,-84.15
4319000,-85.54
4320000,-86.21
4321000,-84.53
4322000,-85.12
4323000,-85.02
4324000,-84.72
4325000,-85.76
4326000,-86.33
4327000,-85.98
4328000,-85.98
4329000,-84.53
4330000,-85.54
4331000,-84.62
4332000,-86.7
4333000,-85.76
4334000,-85.54
4335000,-83.44
4336000,-86.33
4337000,-85.33
4338000,-85.33
4339000,-86.21
4340000,-85.43
4341000,-85.12
4342000,-85.02
4343000,-83.97
4344000,-85.43
4345000,-85.02
4346000,-85.12
4347000,-84.91
4348000,-83.53
4349000,-85.54
4350000,-85.33
4351000,-84.91
4352000,-85.98
4353000,-84.62
4354000,-84.72
4355000,-85.12
4356000,-85.8
4357000,-85.91
4358000,-84.56
4359000,-84.56
4360000,-85.47
4361000,-85.26
4362000,-84.46
4363000,-84.65
4364000,-84.85
4365000,-87.26
4366000,-86.38
4367000,-84.85
4368000,-85.91
4369000,-85.47
4370000,-85.69
4371000,-85.91
4372000,-85.69
4373000,-83.13
4374000,-85.69
4375000,-83.9
4376000,-85.26
4377000,-85.91
4378000,-86.63
4379000,-84.65
4380000,-84.65
4381000,-84.56
4382000,-84.65
4383000,-86.14
4384000,-86.63
4385000,-86.14
4386000,-86.14
4387000,-86.38
4388000,-85.69
4389000,-84.46
4390000,-86.63
4391000,-85.47
4392000,-84.65
4393000,-84.56
4394000,-83.13
4395000,-82.41
4396000,-80.85
4397000,-80.85
4398000,-79.03
4399000,-80.85
4400000,-79.45
4401000,-79.89
4402000,-79.45
4403000,-80.36
4404000,-81.69
4405000,-83.21
4406000,-83.72
4407000,-84.85
4408000,-84.08
4409000,-83.04
4410000,-84.95
4411000,-84.65
4412000,-85.91
4413000,-84.46
4414000,-84.08
4415000,-85.47
4416000,-85.8
4417000,-85.05
4418000,-85.8
4419000,-85.37
4420000,-83.81
4421000,-86.27
4422000,-85.8
4423000,-85.69
4424000,-84.85
4425000,-85.26
4426000,-85.47
4427000,-85.26
4428000,-84.95
4429000,-85.05
4430000,-86.14
4431000,-85.8
4432000,-85.69
4433000,-85.05
4434000,-86.27
4435000,-83.55
4436000,-84.46
4437000,-86.88
4438000,-84.65
4439000,-86.63
4440000,-85.37
4441000,-85.26
4442000,-85.91
4443000,-85.8
4444000,-85.69
4445000,-83.72
4446000,-84.56
4447000,-87.13
4448000,-83.37
4449000,-85.8
4450000,-84.18
4451000,-85.37
4452000,-86.14
4453000,-86.38
4454000,-85.8
4455000,-84.56
4456000,-84.46
4457000,-85.69
4458000,-85.8
4459000,-85.69
4460000,-85.05
4461000,-85.26
4462000,-85.37
4463000,-84.65
4464000,-84.95
4465000,-85.37
4466000,-87.4
4467000,-85.8
4468000,-84.95
4469000,-84.95
4470000,-85.26
4471000,-84.18
4472000,-85.05
4473000,-83.04
4474000,-84.95
4475000,-84.95
4476000,-84.65
4477000,-84.95
4478000,-86.14
4479000,-85.91
4480000,-84.56
4481000,-85.69
4482000,-85.37
4483000,-86.27
4484000,-84.95
4485000,-86.38
4486000,-85.47
4487000,-85.91
4488000,-84.69
4489000,-84.88
4490000,-85.29
4491000,-85.08
4492000,-84.49
4493000,-83.84
4494000,-83.5
4495000,-82.91
4496000,-82.23
4497000,-81.72
4498000,-80.39
4499000,-78.96
4500000,-79.7
4501000,-79.38
4502000,-80.28
4503000,-81.4
4504000,-81.4
4505000,-83.16
4506000,-81.72
4507000,-84.59
4508000,-85.08
4509000,-84.69
4510000,-82.83
4511000,-84.99
4512000,-84.99
4513000,-85.4
4514000,-86.18
4515000,-85.51
4516000,-85.73
4517000,-84.49
4518000,-85.08
4519000,-85.73
4520000,-85.83
4521000,-84.3
4522000,-84.3
4523000,-84.69
4524000,-83.49
4525000,-85.4
4526000,-84.88
4527000,-85.29
4528000,-85.4
4529000,-85.4
4530000,-85.4
4531000,-83.94
4532000,-84.99
4533000,-86.91
4534000,-86.3
4535000,-85.4
4536000,-84.69
4537000,-84.59
4538000,-84.59
4539000,-85.73
4540000,-84.59
4541000,-86.41
4542000,-84.59
4543000,-85.51
4544000,-86.41
4545000,-84.59
4546000,-83.75
4547000,-85.4
4548000,-85.51
4549000,-83.58
4550000,-85.08
4551000,-84.59
4552000,-84.69
4553000,-85.54
4554000,-85.98
4555000,-85.33
4556000,-86.45
4557000,-86.45
4558000,-84.52
4559000,-86.94
4560000,-85.43
4561000,-85.33
4562000,-85.43
4563000,-85.76
4564000,-85.33
4565000,-85.12
4566000,-85.02
4567000,-85.02
4568000,-83.53
4569000,-85.76
4570000,-85.12
4571000,-85.98
4572000,-84.52
4573000,-86.21
4574000,-86.69
4575000,-84.52
4576000,-85.12
4577000,-86.21
4578000,-85.98
4579000,-84.72
4580000,-85.76
4581000,-85.98
4582000,-85.54
4583000,-83.44
4584000,-85.76
4585000,-84.15
4586000,-85.86
4587000,-85.54
4588000,-85.98
4589000,-87.2
4590000,-85.54
4591000,-86.21
4592000,-85.02
4593000,-84.62
4594000,-83.78
4595000,-82.63
4596000,-82.56
4597000,-80.92
4598000,-80.67
4599000,-79.62
4600000,-78.79
4601000,-79.62
4602000,-79.41
4603000,-81.17
4604000,-82.04
4605000,-81.44
4606000,-82.87
4607000,-85.11
4608000,-84.72
4609000,-85.11
4610000,-84.33
4611000,-85.43
4612000,-85.33
4613000,-84.72
4614000,-85.98
4615000,-85.43
4616000,-83.97
4617000,-87.33
4618000,-85.54
4619000,-85.54
4620000,-87.16
4621000,-83.41
4622000,-84.59
4623000,-86.18
4624000,-84.98
4625000,-84.68
4626000,-83.93
4627000,-87.67
4628000,-84.88
4629000,-84.11
4630000,-84.49
4631000,-86.18
4632000,-84.68
4633000,-85.29
4634000,-86.3
4635000,-84.3
4636000,-85.5
4637000,-86.3
4638000,-83.93
4639000,-85.4
4640000,-83.58
4641000,-84.98
4642000,-85.73
4643000,-85.95
4644000,-83.58
4645000,-84.49
4646000,-85.08
4647000,-84.68
4648000,-85.73
4649000,-85.83
4650000,-85.83
4651000,-85.83
4652000,-84.88
4653000,-85.95
4654000,-85.83
4655000,-84.21
4656000,-84.98
4657000,-85.4
4658000,-84.68
4659000,-85.73
4660000,-84.68
4661000,-84.11
4662000,-86.17
4663000,-85.83
4664000,-84.49
4665000,-86.17
4666000,-85.83
4667000,-85.83
4668000,-86.91
4669000,-85.95
4670000,-84.68
4671000,-84.3
4672000,-85.72
4673000,-84.59
4674000,-85.72
4675000,-84.49
4676000,-85.72
4677000,-84.49
4678000,-84.3
4679000,-85.83
4680000,-85.72
4681000,-87.43
4682000,-85.4
4683000,-85.5
4684000,-85.08
4685000,-85.76
4686000,-86.82
4687000,-86.45
4688000,-84.33
4689000,-86.21
4690000,-86.21
4691000,-85.86
4692000,-84.52
4693000,-84.91
4694000,-83.87
4695000,-83.19
4696000,-80.92
4697000,-80.42
4698000,-80.31
4699000,-79.73
4700000,-79.51
4701000,-79.73
4702000,-79.95
4703000,-80.92
4704000,-81.17
4705000,-81.9
4706000,-84.33
4707000,-84.24
4708000,-84.14
4709000,-84.14
4710000,-84.24
4711000,-84.72
4712000,-86.33
4713000,-85.54
4714000,-84.62
4715000,-85.02
4716000,-83.44
4717000,-84.52
4718000,-85.11
4719000,-86.21
4720000,-84.14
4721000,-85.76
4722000,-85.54
4723000,-86.33
4724000,-84.62
4725000,-85.43
4726000,-85.43
4727000,-86.94
4728000,-86.45
4729000,-85.86
4730000,-85.02
4731000,-85.54
4732000,-83.53
4733000,-84.52
4734000,-86.21
4735000,-84.91
4736000,-85.54
4737000,-84.72
4738000,-86.69
4739000,-85.33
4740000,-86.21
4741000,-85.54
4742000,-86.21
4743000,-86.33
4744000,-84.62
4745000,-85.54
4746000,-85.76
4747000,-85.43
4748000,-85.33
4749000,-86.33
4750000,-85.08
4751000,-86.3
4752000,-86.3
4753000,-84.49
4754000,-85.08
4755000,-85.94
4756000,-84.98
4757000,-85.5
4758000,-84.49
4759000,-85.29
4760000,-85.29
4761000,-84.68
4762000,-86.78
4763000,-86.66
4764000,-85.4
4765000,-84.49
4766000,-85.4
4767000,-85.29
4768000,-83.93
4769000,-85.4
4770000,-84.68
4771000,-85.4
4772000,-86.3
4773000,-85.83
4774000,-85.08
4775000,-85.5
4776000,-85.08
4777000,-84.88
4778000,-85.29
4779000,-83.58
4780000,-85.72
4781000,-85.4
4782000,-84.21
4783000,-85.29
4784000,-86.41
4785000,-87.16
4786000,-85.29
4787000,-86.17
4788000,-85.29
4789000,-85.08
4790000,-85.72
4791000,-85.83
4792000,-85.08
4793000,-82.83
4794000,-84.88
4795000,-83.24
4796000,-81.72
4797000,-81.14
4798000,-79.7
4799000,-80.39
4800000,-79.37
4801000,-80.15
4802000,-80.88
4803000,-81.27
4804000,-82.22
4805000,-82.52
4806000,-83.24
4807000,-83.16
4808000,-85.4
4809000,-85.72
4810000,-85.72
4811000,-83.58
4812000,-86.78
4813000,-86.66
4814000,-85.83
4815000,-85.5
4816000,-86.66
4817000,-84.24
4818000,-85.98
4819000,-84.52
4820000,-85.98
4821000,-85.43
4822000,-85.43
4823000,-84.72
4824000,-84.14
4825000,-86.82
4826000,-85.02
4827000,-85.86
4828000,-85.54
4829000,-85.76
4830000,-86.33
4831000,-83.97
4832000,-85.54
4833000,-84.91
4834000,-85.76
4835000,-85.54
4836000,-85.54
4837000,-85.86
4838000,-85.32
4839000,-84.52
4840000,-85.11
4841000,-86.21
4842000,-86.44
4843000,-84.33
4844000,-85.32
4845000,-84.14
4846000,-84.24
4847000,-84.62
4848000,-84.91
4849000,-85.86
4850000,-85.76
4851000,-85.11
4852000,-85.43
4853000,-83.61
4854000,-85.54
4855000,-84.52
4856000,-86.33
4857000,-85.02
4858000,-84.62
4859000,-86.21
4860000,-85.86
4861000,-85.76
4862000,-85.86
4863000,-85.54
4864000,-84.62
4865000,-86.21
4866000,-86.33
4867000,-86.21
4868000,-85.98
4869000,-85.54
4870000,-86.44
4871000,-85.02
4872000,-85.76
4873000,-86.44
4874000,-86.33
4875000,-84.91
4876000,-86.33
4877000,-86.69
4878000,-85.02
4879000,-84.91
4880000,-86.33
4881000,-85.86
4882000,-83.97
4883000,-85.54
4884000,-86.33
4885000,-85.02
4886000,-84.91
4887000,-85.43
4888000,-83.87
4889000,-86.44
4890000,-86.21
4891000,-85.98
4892000,-86.33
4893000,-82.94
4894000,-82.56
4895000,-82.03
4896000,-81.17
4897000,-80.67
4898000,-79.3
4899000,-80.31
4900000,-79.19
4901000,-79.73
4902000,-80.54
4903000,-80.54
4904000,-82.18
4905000,-82.33
4906000,-83.61
4907000,-84.24
4908000,-84.24
4909000,-83.53
4910000,-84.62
4911000,-85.32
4912000,-82.63
4913000,-85.11
4914000,-84.72
4915000,-86.69
4916000,-85.54
4917000,-85.98
4918000,-86.33
4919000,-84.72
4920000,-84.14
4921000,-86.69
4922000,-85.54
4923000,-85.43
4924000,-84.72
4925000,-85.32
4926000,-85.86
4927000,-85.86
4928000,-86.21
4929000,-86.69
4930000,-85.54
4931000,-84.91
4932000,-85.11
4933000,-85.54
4934000,-85.32
4935000,-86.21
4936000,-85.32
4937000,-85.32
4938000,-85.02
4939000,-84.62
4940000,-85.02
4941000,-86.21
4942000,-86.21
4943000,-85.43
4944000,-84.62
4945000,-84.91
4946000,-85.76
4947000,-84.72
4948000,-86.9
4949000,-84.59
4950000,-86.3
4951000,-86.17
4952000,-85.72
4953000,-84.98
4954000,-84.68
4955000,-86.78
4956000,-85.72
4957000,-85.94
4958000,-85.08
4959000,-87.42
4960000,-85.4
4961000,-85.4
4962000,-86.17
4963000,-86.17
4964000,-85.4
4965000,-85.72
4966000,-85.29
4967000,-84.21
4968000,-85.08
4969000,-85.08
4970000,-85.4
4971000,-85.29
4972000,-85.83
4973000,-83.75
4974000,-85.83
4975000,-85.83
4976000,-85.72
4977000,-84.58
4978000,-85.83
4979000,-85.94
4980000,-84.98
4981000,-85.94
4982000,-84.68
4983000,-86.41
4984000,-85.83
4985000,-84.49
4986000,-84.88
4987000,-86.9
4988000,-85.4
4989000,-85.4
4990000,-85.29
4991000,-85.4
4992000,-85.72
4993000,-84.21
4994000,-82.75
4995000,-83.93
4996000,-82.29
4997000,-80.88
4998000,-79.92
4999000,-79.8
5000000,-80.15
