Frequency (Hz),Amplitude (dBm)
10000000,-45.51
10009000,-65.68
10018000,-80.21
10027000,-87.48
10036000,-90.6
10045000,-91.46
10054000,-90.42
10063000,-91.61
10072000,-92.42
10081000,-92.01
10090000,-90.95
10099000,-92.25
10108000,-91.85
10117000,-90.53
10126000,-90.19
10135000,-91.49
10144000,-90.7
10153000,-91.64
10162000,-92.89
10171000,-92.54
10180000,-91.96
10189000,-92.63
10198000,-91.49
10207000,-92.29
10216000,-92.63
10225000,-92.71
10234000,-91.34
10243000,-90.63
10252000,-90.06
10261000,-93.54
10270000,-92.12
10279000,-91.8
10288000,-91.05
10297000,-91.8
10306000,-92.04
10315000,-92.29
10324000,-92.12
10333000,-93.16
10342000,-93.73
10351000,-90.77
10360000,-91.88
10369000,-92.21
10378000,-93.07
10387000,-91.42
10396000,-92.63
10405000,-93.26
10414000,-91.05
10423000,-92.45
10432000,-92.63
10441000,-90.06
10450000,-92.8
10459000,-90.06
10468000,-91.8
10477000,-89.81
10486000,-93.25
10495000,-92.54
10504000,-92.71
10513000,-92.37
10522000,-91.19
10531000,-92.88
10540000,-91.96
10549000,-92.28
10558000,-91.8
10567000,-93.73
10576000,-92.28
10585000,-92.63
10594000,-92.8
10603000,-92.45
10612000,-92.8
10621000,-91.19
10630000,-92.98
10639000,-92.79
10648000,-94.13
10657000,-91.49
10666000,-91.05
10675000,-91.49
10684000,-92.71
10693000,-92.63
10702000,-92.63
10711000,-92.54
10720000,-93.09
10729000,-91.2
10738000,-91.05
10747000,-90.84
10756000,-92.05
10765000,-89.86
10774000,-90.84
10783000,-92.91
10792000,-90.7
10801000,-92.38
10810000,-92.3
10819000,-92.3
10828000,-93.86
10837000,-91.73
10846000,-91.05
10855000,-92.81
10864000,-93
10873000,-91.65
10882000,-90.49
10891000,-92.3
10900000,-92.47
10909000,-92.56
10918000,-91.73
10927000,-91.73
10936000,-91.89
10945000,-92.73
10954000,-92.13
10963000,-91.2
10972000,-93.96
10981000,-92.21
10990000,-91.89
10999000,-91.57
11008000,-91.27
11017000,-91.27
11026000,-91.05
11035000,-92.21
11044000,-91.73
11053000,-93.09
11062000,-92.91
11071000,-91.73
11080000,-90.63
11089000,-92.91
11098000,-92.05
11107000,-91.35
11116000,-92.47
11125000,-92.81
11134000,-92.3
11143000,-91.81
11152000,-92.64
11161000,-92.64
11170000,-91.27
11179000,-93.18
11188000,-93.37
11197000,-92.56
11206000,-92.38
11215000,-92.91
11224000,-93.09
11233000,-94.16
11242000,-92.21
11251000,-92.04
11260000,-92.56
11269000,-93.37
11278000,-91.42
11287000,-92.21
11296000,-91.12
11305000,-91.35
11314000,-93.08
11323000,-91.57
11332000,-90.24
11341000,-91.65
11350000,-93.46
11359000,-93.27
11368000,-91.88
11377000,-93.46
11386000,-91.42
11395000,-92.91
11404000,-92.13
11413000,-93.46
11422000,-92.72
11431000,-92.04
11440000,-92.91
11449000,-92.38
11458000,-92.91
11467000,-91.5
11476000,-92.72
11485000,-91.27
11494000,-93.08
11503000,-92.72
11512000,-92.91
11521000,-91.96
11530000,-92.21
11539000,-92.99
11548000,-91.72
11557000,-93.46
11566000,-93.08
11575000,-93.36
11584000,-90.83
11593000,-93.27
11602000,-92.04
11611000,-92.72
11620000,-93.56
11629000,-92.91
11638000,-90.37
11647000,-92.04
11656000,-93.08
11665000,-90.97
11674000,-91.72
11683000,-92.38
11692000,-92.38
11701000,-92.9
11710000,-92.13
11719000,-93.27
11728000,-94.37
11737000,-92.9
11746000,-91.41
11755000,-92.21
11764000,-91.41
11773000,-91.56
11782000,-91.8
11791000,-91.96
11800000,-91.64
11809000,-90.97
11818000,-93.27
11827000,-90.62
11836000,-92.04
11845000,-91.8
11854000,-91.8
11863000,-91.11
11872000,-92.21
11881000,-92.72
11890000,-92.21
11899000,-93.24
11908000,-93.82
11917000,-93.43
11926000,-92.44
11935000,-92.53
11944000,-90.05
11953000,-91.87
11962000,-91.56
11971000,-92.53
11980000,-91.48
11989000,-91.95
11998000,-92.27
12007000,-92.27
12016000,-92.44
12025000,-91.87
12034000,-93.24
12043000,-91.71
12052000,-91.63
12061000,-92.36
12070000,-92.36
12079000,-91.33
12088000,-92.97
12097000,-92.87
12106000,-90.44
12115000,-91.87
12124000,-93.43
12133000,-92.87
12142000,-90.82
12151000,-92.62
12160000,-91.11
12169000,-92.36
12178000,-92.1
12187000,-92.02
12196000,-93.06
12205000,-93.06
12214000,-93.33
12223000,-91.94
12232000,-92.02
12241000,-92.1
12250000,-93.62
12259000,-92.02
12268000,-92.19
12277000,-93.52
12286000,-92.78
12295000,-94.02
12304000,-91.26
12313000,-91.94
12322000,-91.94
12331000,-92.87
12340000,-91.56
12349000,-93.24
12358000,-93.33
12367000,-92.27
12376000,-92.44
12385000,-92.53
12394000,-93.42
12403000,-92.49
12412000,-93.11
12421000,-92.93
12430000,-93.02
12439000,-90.23
12448000,-92.67
12457000,-92.58
12466000,-92.67
12475000,-91.84
12484000,-92.67
12493000,-92.67
12502000,-92.49
12511000,-91.09
12520000,-92.32
12529000,-93.48
12538000,-93.2
12547000,-93.2
12556000,-91.84
12565000,-91.68
12574000,-92.49
12583000,-91.09
12592000,-92.16
12601000,-93.71
12610000,-91.47
12619000,-92.52
12628000,-91.94
12637000,-90.61
12646000,-91.47
12655000,-91.17
12664000,-93.71
12673000,-92.69
12682000,-92.43
12691000,-92.36
12700000,-91.47
12709000,-93.52
12718000,-93.32
12727000,-92.1
12736000,-91.94
12745000,-94.22
12754000,-90.75
12763000,-92.78
12772000,-91.86
12781000,-91.25
12790000,-91.62
12799000,-91.78
12808000,-93.32
12817000,-90.82
12826000,-92.43
12835000,-92.1
12844000,-92.96
12853000,-92.02
12862000,-91.94
12871000,-91.78
12880000,-92.27
12889000,-92.78
12898000,-92.61
12907000,-92.96
12916000,-91.7
12925000,-93.32
12934000,-92.19
12943000,-93.32
12952000,-94.11
12961000,-92.78
12970000,-92.96
12979000,-93.14
12988000,-92.02
12997000,-93.71
13006000,-91.03
13015000,-93.32
13024000,-91.32
13033000,-92.1
13042000,-91.7
13051000,-92.61
13060000,-91.03
13069000,-91.32
13078000,-93.42
13087000,-93.98
13096000,-91.82
13105000,-92.49
13114000,-91.82
13123000,-92.4
13132000,-93.48
13141000,-91.22
13150000,-92.74
13159000,-92.83
13168000,-92.4
13177000,-94.18
13186000,-92.57
13195000,-92.23
13204000,-92.23
13213000,-93.2
13222000,-91.98
13231000,-93.29
13240000,-93.48
13249000,-92.93
13258000,-92.83
13267000,-93.1
13276000,-91.51
13285000,-92.48
13294000,-92.23
13303000,-91.74
13312000,-92.57
13321000,-92.48
13330000,-92.74
13339000,-92.06
13348000,-92.32
13357000,-92.65
13366000,-93.38
13375000,-92.06
13384000,-92.4
13393000,-92.23
13402000,-90.39
13411000,-92.06
13420000,-93.48
13429000,-90.5
13438000,-93.38
13447000,-91.06
13456000,-91.9
13465000,-91.98
13474000,-91.74
13483000,-94.49
13492000,-91.21
13501000,-93.1
13510000,-93.38
13519000,-92.74
13528000,-93.29
13537000,-92.83
13546000,-92.39
13555000,-91.74
13564000,-92.39
13573000,-90.71
13582000,-93.2
13591000,-91.74
13600000,-92.31
13609000,-91.58
13618000,-93.28
13627000,-91.98
13636000,-92.23
13645000,-92.65
13654000,-91.13
13663000,-91.66
13672000,-92.19
13681000,-91.55
13690000,-92.02
13699000,-92.19
13708000,-91.79
13717000,-89.34
13726000,-92.54
13735000,-92.11
13744000,-92.54
13753000,-93.06
13762000,-92.11
13771000,-92.98
13780000,-92.36
13789000,-93.35
13798000,-92.7
13807000,-90.53
13816000,-93.25
13825000,-91.55
13834000,-93.44
13843000,-92.7
13852000,-92.89
13861000,-92.36
13870000,-93.16
13879000,-93.83
13888000,-91.25
13897000,-92.28
13906000,-91.55
13915000,-91.94
13924000,-91.48
13933000,-91.48
13942000,-92.53
13951000,-93.64
13960000,-91.7
13969000,-92.7
13978000,-90.36
13987000,-92.36
13996000,-92.36
14005000,-92.89
14014000,-93.06
14023000,-92.19
14032000,-91.25
14041000,-92.53
14050000,-91.55
14059000,-92.53
14068000,-93.73
14077000,-93.54
14086000,-90.95
14095000,-91.78
14104000,-92.53
14113000,-92.19
14122000,-93.25
14131000,-93.06
14140000,-93.06
14149000,-92.36
14158000,-91.17
14167000,-92.36
14176000,-93.25
14185000,-92.19
14194000,-92.53
14203000,-92.11
14212000,-93.16
14221000,-92.36
14230000,-92.19
14239000,-92.97
14248000,-92.53
14257000,-92.36
14266000,-91.54
14275000,-92.77
14284000,-92.42
14293000,-92.01
14302000,-91.77
14311000,-91.61
14320000,-93.31
14329000,-92.6
14338000,-93.13
14347000,-91.02
14356000,-93.7
14365000,-92.95
14374000,-93.31
14383000,-91.54
14392000,-93.41
14401000,-93.22
14410000,-92.51
14419000,-92.17
14428000,-92.17
14437000,-93.04
14446000,-92.09
14455000,-94.1
14464000,-93.22
14473000,-93.41
14482000,-93.41
14491000,-92.42
14500000,-92.17
14509000,-94.2
14518000,-91.93
14527000,-92.17
14536000,-93.8
14545000,-92.6
14554000,-91.61
14563000,-91.69
14572000,-92.08
14581000,-91.69
14590000,-91.77
14599000,-93.7
14608000,-92.67
14617000,-92.42
14626000,-90.66
14635000,-94
14644000,-92.42
14653000,-91.92
14662000,-92.25
14671000,-92.17
14680000,-91.77
14689000,-92.76
14698000,-91.92
14707000,-91.77
14716000,-93.04
14725000,-92.51
14734000,-92.08
14743000,-92.08
14752000,-90.66
14761000,-91.84
14770000,-90.42
14779000,-92.95
14788000,-92.95
14797000,-92.08
14806000,-92
14815000,-92.42
14824000,-92
14833000,-90.87
14842000,-92.95
14851000,-93.31
14860000,-92.22
14869000,-93.47
14878000,-92.05
14887000,-91.89
14896000,-93.09
14905000,-93.27
14914000,-92.05
14923000,-93.37
14932000,-91.27
14941000,-93
14950000,-92.56
14959000,-91.73
14968000,-92.91
14977000,-92.73
14986000,-91.35
14995000,-91.97
15004000,-92.38
15013000,-90.7
15022000,-92.14
15031000,-92.38
15040000,-91.27
15049000,-93.47
15058000,-92.56
15067000,-93.18
15076000,-92.21
15085000,-90.98
15094000,-92.3
15103000,-93
15112000,-93.37
15121000,-94.06
15130000,-93
15139000,-91.35
15148000,-92.13
15157000,-93.09
15166000,-91.97
15175000,-93.56
15184000,-90.38
15193000,-90.98
15202000,-92.72
15211000,-90.48
15220000,-91.89
15229000,-91.5
15238000,-92.05
15247000,-93.09
15256000,-93.27
15265000,-92.72
15274000,-92.72
15283000,-93.09
15292000,-90.48
15301000,-92.21
15310000,-92.56
15319000,-93.46
15328000,-91.35
15337000,-93.09
15346000,-92.47
15355000,-92.21
15364000,-91.81
15373000,-92.56
15382000,-93.27
15391000,-93.18
15400000,-93.27
15409000,-92.72
15418000,-93.18
15427000,-92.21
15436000,-91.96
15445000,-93.08
15454000,-92.87
15463000,-92.52
15472000,-92.01
15481000,-90.8
15490000,-92.96
15499000,-93.62
15508000,-92.1
15517000,-92.96
15526000,-92.27
15535000,-93.62
15544000,-90.08
15553000,-92.6
15562000,-91.85
15571000,-92.43
15580000,-92.52
15589000,-92.69
15598000,-92.1
15607000,-93.43
15616000,-93.82
15625000,-92.18
15634000,-92.87
15643000,-93.43
15652000,-92.78
15661000,-91.77
15670000,-91.69
15679000,-92.26
15688000,-92.96
15697000,-93.43
15706000,-91.46
15715000,-93.23
15724000,-93.33
15733000,-92.52
15742000,-93.53
15751000,-93.43
15760000,-92.01
15769000,-93.05
15778000,-91.61
15787000,-92.87
15796000,-91.23
15805000,-91.53
15814000,-91.69
15823000,-92.52
15832000,-93.33
15841000,-91.46
15850000,-92.87
15859000,-92.17
15868000,-92.01
15877000,-91.77
15886000,-91.08
15895000,-92.17
15904000,-92.6
15913000,-92.96
15922000,-94.02
15931000,-92.17
15940000,-92.77
15949000,-93.05
15958000,-92.26
15967000,-92.69
15976000,-92.09
15985000,-92.52
15994000,-91.85
16003000,-93.14
16012000,-92.87
16021000,-92.17
16030000,-92.34
16039000,-91.93
16048000,-93.85
16057000,-93.56
16066000,-90.62
16075000,-92.04
16084000,-93.65
16093000,-93.18
16102000,-92.81
16111000,-91.11
16120000,-89
16129000,-92.04
16138000,-92.46
16147000,-93.46
16156000,-92.72
16165000,-93.18
16174000,-92.29
16183000,-92.81
16192000,-92.63
16201000,-91.34
16210000,-93.08
16219000,-92.72
16228000,-93.26
16237000,-93.08
16246000,-91.64
16255000,-93.55
16264000,-91.72
16273000,-93.46
16282000,-92.37
16291000,-92.9
16300000,-93.08
16309000,-93.84
16318000,-92.37
16327000,-91.56
16336000,-92.46
16345000,-91.49
16354000,-92.12
16363000,-92.12
16372000,-92.9
16381000,-92.99
16390000,-91.49
16399000,-92.99
16408000,-92.12
16417000,-93.08
16426000,-92.55
16435000,-92.72
16444000,-91.96
16453000,-92.8
16462000,-93.26
16471000,-91.49
16480000,-92.71
16489000,-91.88
16498000,-93.55
16507000,-92.04
16516000,-92.99
16525000,-90.97
16534000,-93.84
16543000,-93.08
16552000,-93.08
16561000,-91.56
16570000,-93.36
16579000,-93.08
16588000,-92.55
16597000,-93.17
16606000,-93.65
16615000,-91.88
16624000,-91.04
16633000,-92.99
16642000,-92.32
16651000,-93.58
16660000,-92.07
16669000,-93.29
16678000,-93.11
16687000,-92.58
16696000,-93.29
16705000,-91.67
16714000,-92.58
16723000,-92.66
16732000,-91.83
16741000,-92.4
16750000,-91.99
16759000,-92.32
16768000,-91.59
16777000,-91
16786000,-92.07
16795000,-93.29
16804000,-91.59
16813000,-92.23
16822000,-92.23
16831000,-92.23
16840000,-91.75
16849000,-92.58
16858000,-92.23
16867000,-93.98
16876000,-92.32
16885000,-94.08
16894000,-91.99
16903000,-92.07
16912000,-92.83
16921000,-92.93
16930000,-93.11
16939000,-93.49
16948000,-92.49
16957000,-93.58
16966000,-92.23
16975000,-92.66
16984000,-93.68
16993000,-91.22
17002000,-91.83
17011000,-91.75
17020000,-92.15
17029000,-92.4
17038000,-91.99
17047000,-91
17056000,-91.91
17065000,-91.91
17074000,-91.59
17083000,-91.75
17092000,-93.68
17101000,-91.59
17110000,-90.86
17119000,-91.22
17128000,-92.4
17137000,-92.58
17146000,-91.37
17155000,-92.15
17164000,-93.39
17173000,-93.1
17182000,-91.75
17191000,-93.68
17200000,-93.02
17209000,-92.15
17218000,-92.93
17227000,-92.54
17236000,-92.54
17245000,-93.26
17254000,-90.75
17263000,-93.45
17272000,-92.54
17281000,-92.98
17290000,-90.82
17299000,-93.45
17308000,-91.87
17317000,-92.03
17326000,-92.54
17335000,-92.71
17344000,-91.03
17353000,-92.54
17362000,-91.71
17371000,-92.89
17380000,-92.8
17389000,-91.1
17398000,-91.03
17407000,-92.28
17416000,-92.8
17425000,-92.03
17434000,-93.45
17443000,-92.12
17452000,-92.2
17461000,-93.25
17470000,-92.62
17479000,-92.89
17488000,-90.36
17497000,-91.25
17506000,-92.89
17515000,-92.79
17524000,-92.19
17533000,-93.54
17542000,-92.89
17551000,-93.25
17560000,-91.55
17569000,-92.62
17578000,-92.45
17587000,-92.98
17596000,-92.89
17605000,-92.54
17614000,-92.54
17623000,-91.95
17632000,-92.19
17641000,-93.45
17650000,-92.89
17659000,-92.62
17668000,-92.36
17677000,-92.89
17686000,-92.98
17695000,-93.45
17704000,-91.48
17713000,-92.89
17722000,-93.07
17731000,-92.79
17740000,-92.28
17749000,-91.25
17758000,-92.89
17767000,-92.28
17776000,-92.11
17785000,-92.89
17794000,-93.16
17803000,-91.63
17812000,-93.44
17821000,-92.36
17830000,-91.52
17839000,-92.5
17848000,-94
17857000,-91.91
17866000,-90.19
17875000,-91.99
17884000,-93.31
17893000,-92.33
17902000,-92.5
17911000,-92.16
17920000,-93.6
17929000,-90.99
17938000,-92.85
17947000,-92.33
17956000,-92.67
17965000,-94
17974000,-92.16
17983000,-92.25
17992000,-92.76
18001000,-92.67
18010000,-92.85
18019000,-93.9
18028000,-93.41
18037000,-92.32
18046000,-93.03
18055000,-93.31
18064000,-91.51
18073000,-92.41
18082000,-93.03
18091000,-93.22
18100000,-93.6
18109000,-91.21
18118000,-93.41
18127000,-93.03
18136000,-92.76
18145000,-92.85
18154000,-92.08
18163000,-92.32
18172000,-91.44
18181000,-92.5
18190000,-92.32
18199000,-93.21
18208000,-93.31
18217000,-94.32
18226000,-91.29
18235000,-91.75
18244000,-90.64
18253000,-92.94
18262000,-91.83
18271000,-91.99
18280000,-92.94
18289000,-93.31
18298000,-92.67
18307000,-93.13
18316000,-94.1
18325000,-92.08
18334000,-90.32
18343000,-92.24
18352000,-93.41
18361000,-92.75
18370000,-93.03
18379000,-92.32
18388000,-93.41
18397000,-92.24
18406000,-92.08
18415000,-91.83
18424000,-93.03
18433000,-92.5
18442000,-92.5
18451000,-93.03
18460000,-92.15
18469000,-90.06
18478000,-92.5
18487000,-91.51
18496000,-94.64
18505000,-92.58
18514000,-91.36
18523000,-93.41
18532000,-93.21
18541000,-90.5
18550000,-93.03
18559000,-93.03
18568000,-93.21
18577000,-93.5
18586000,-93.6
18595000,-93.41
18604000,-92.15
18613000,-90.78
18622000,-92.32
18631000,-91.67
18640000,-91.67
18649000,-92.75
18658000,-93.31
18667000,-93.4
18676000,-92.85
18685000,-93.4
18694000,-93.12
18703000,-91.98
18712000,-94.1
18721000,-91.91
18730000,-92.85
18739000,-92.32
18748000,-93.4
18757000,-92.66
18766000,-91.29
18775000,-91.83
18784000,-92.41
18793000,-92.66
18802000,-91.06
18811000,-92.85
18820000,-92.85
18829000,-93.31
18838000,-91.21
18847000,-92.41
18856000,-93.21
18865000,-93.21
18874000,-92.49
18883000,-92.15
18892000,-92.49
18901000,-91.14
18910000,-91.82
18919000,-92.24
18928000,-91.51
18937000,-92.15
18946000,-90.7
18955000,-92.49
18964000,-90.77
18973000,-92.15
18982000,-92.93
18991000,-93.02
19000000,-93.4
19009000,-92.66
19018000,-92.57
19027000,-90.77
19036000,-93.4
19045000,-92.75
19054000,-92.75
19063000,-92.93
19072000,-92.4
19081000,-92.24
19090000,-93.69
19099000,-93.3
19108000,-93.02
19117000,-90.05
19126000,-93.4
19135000,-91.82
19144000,-92.49
19153000,-90.49
19162000,-92.07
19171000,-92.66
19180000,-90.84
19189000,-91.74
19198000,-91.66
19207000,-92.93
19216000,-92.93
19225000,-91.05
19234000,-91.43
19243000,-93.02
19252000,-92.57
19261000,-92.84
19270000,-92.07
19279000,-91.58
19288000,-91.9
19297000,-93.02
19306000,-93.89
19315000,-91.5
19324000,-92.84
19333000,-92.57
19342000,-91.35
19351000,-93.99
19360000,-91.13
19369000,-92.84
19378000,-92.15
19387000,-92.57
19396000,-93.5
19405000,-92.93
19414000,-91.98
19423000,-93.79
19432000,-92.66
19441000,-93.99
19450000,-93.2
19459000,-93.99
19468000,-91.2
19477000,-92.66
19486000,-92.84
19495000,-93.4
19504000,-92.49
19513000,-91.82
19522000,-93.2
19531000,-92.31
19540000,-92.57
19549000,-91.98
19558000,-92.31
19567000,-93.99
19576000,-93.02
19585000,-91.74
19594000,-93.49
19603000,-92.72
19612000,-93.46
19621000,-92.56
19630000,-91.89
19639000,-92.04
19648000,-92.56
19657000,-92.3
19666000,-92.72
19675000,-92.55
19684000,-91.57
19693000,-93.85
19702000,-90.38
19711000,-91.96
19720000,-93.08
19729000,-91.73
19738000,-92.04
19747000,-92.81
19756000,-92.72
19765000,-91.73
19774000,-93.27
19783000,-93.27
19792000,-93.18
19801000,-92.91
19810000,-94.05
19819000,-93.18
19828000,-91.5
19837000,-89.61
19846000,-93.46
19855000,-93.66
19864000,-92.47
19873000,-92.47
19882000,-92.21
19891000,-91.64
19900000,-93.75
19909000,-91.72
19918000,-91.34
19927000,-89.85
19936000,-90.83
19945000,-91.57
19954000,-92.55
19963000,-89.85
19972000,-87.34
19981000,-81.7
19990000,-67.63
19999000,-46.39
20008000,-63.44
20017000,-79.68
20026000,-86.61
20035000,-90.55
20044000,-89.73
20053000,-91.34
20062000,-92.99
20071000,-92.72
20080000,-92.55
20089000,-92.55
20098000,-92.81
20107000,-91.8
20116000,-91.49
20125000,-91.8
20134000,-92.81
20143000,-93.08
20152000,-91.96
20161000,-92.3
20170000,-92.04
20179000,-92.46
20188000,-92.81
20197000,-93.18
20206000,-92.9
20215000,-92.37
20224000,-91.56
20233000,-93.26
20242000,-92.55
20251000,-92.72
20260000,-93.65
20269000,-93.18
20278000,-92.46
20287000,-91.8
20296000,-91.72
20305000,-91.96
20314000,-91.26
20323000,-91.72
20332000,-93.18
20341000,-93.95
20350000,-92.99
20359000,-93.08
20368000,-92.21
20377000,-92.72
20386000,-93.08
20395000,-91.72
20404000,-92.8
20413000,-92.37
20422000,-91.88
20431000,-92.9
20440000,-92.8
20449000,-92.37
20458000,-92.13
20467000,-93.17
20476000,-92.55
20485000,-92.8
20494000,-92.29
20503000,-91.72
20512000,-92.63
20521000,-93.08
20530000,-92.63
20539000,-92.72
20548000,-92.04
20557000,-92.2
20566000,-93.17
20575000,-93.26
20584000,-93.08
20593000,-92.55
20602000,-92.72
20611000,-93.95
20620000,-93.65
20629000,-91.56
20638000,-93.08
20647000,-92.46
20656000,-92.9
20665000,-92.2
20674000,-92.9
20683000,-93.46
20692000,-91.72
20701000,-93.08
20710000,-91.72
20719000,-91.96
20728000,-92.29
20737000,-93.65
20746000,-92.71
20755000,-90.76
20764000,-94.26
20773000,-93.75
20782000,-92.77
20791000,-92.34
20800000,-93.32
20809000,-92.17
20818000,-92
20827000,-91.84
20836000,-91.92
20845000,-93.91
20854000,-92.51
20863000,-92.17
20872000,-92.77
20881000,-91.76
20890000,-91.68
20899000,-93.42
20908000,-92.59
20917000,-93.71
20926000,-93.71
20935000,-92.59
20944000,-93.61
20953000,-92.26
20962000,-92.09
20971000,-92
20980000,-93.32
20989000,-92.42
20998000,-94.01
21007000,-91.6
21016000,-91.52
21025000,-93.23
21034000,-90.65
21043000,-93.23
21052000,-92.95
21061000,-92.51
21070000,-92.77
21079000,-92.09
21088000,-91.37
21097000,-91.92
21106000,-91.22
21115000,-93.52
21124000,-93.61
21133000,-91.84
21142000,-92.86
21151000,-93.61
21160000,-91.84
21169000,-92.33
21178000,-92
21187000,-93.32
21196000,-93.22
21205000,-92.17
21214000,-91.3
21223000,-91.22
21232000,-92.59
21241000,-90.79
21250000,-92.86
21259000,-92.33
21268000,-93.71
21277000,-93.32
21286000,-90.79
21295000,-92.25
21304000,-92.76
21313000,-92.86
21322000,-93.32
21331000,-92.51
21340000,-93.42
21349000,-92.68
21358000,-92.08
21367000,-92.25
21376000,-93.22
21385000,-93.04
21394000,-92.33
21403000,-92.33
21412000,-92.51
21421000,-91.68
21430000,-93.04
21439000,-92.51
21448000,-92.76
21457000,-93.22
21466000,-93.61
21475000,-91.76
21484000,-92.67
21493000,-92
21502000,-93.61
21511000,-91.76
21520000,-91.07
21529000,-93.61
21538000,-91.37
21547000,-92
21556000,-92.25
21565000,-92.42
21574000,-93.41
21583000,-92.08
21592000,-91.15
21601000,-93.8
21610000,-92.67
21619000,-93.22
21628000,-92.08
21637000,-92.67
21646000,-92.16
21655000,-93.41
21664000,-92.16
21673000,-93.41
21682000,-93.8
21691000,-90.57
21700000,-91.22
21709000,-93.03
21718000,-91.6
21727000,-92.67
21736000,-93.13
21745000,-93.22
21754000,-93.03
21763000,-91.68
21772000,-93.32
21781000,-94
21790000,-92.86
21799000,-92.16
21808000,-92.67
21817000,-91.99
21826000,-92.16
21835000,-94.22
21844000,-94
21853000,-93.41
21862000,-92.67
21871000,-92.67
21880000,-92.67
21889000,-92.16
21898000,-91.99
21907000,-94
21916000,-91.91
21925000,-93.51
21934000,-91.3
21943000,-91.22
21952000,-94.98
21961000,-93.38
21970000,-92.91
21979000,-93.67
21988000,-93
21997000,-92.91
22006000,-91.96
22015000,-92.91
22024000,-93.28
22033000,-91.48
22042000,-90.16
22051000,-94.39
22060000,-92.64
22069000,-91.96
22078000,-93.57
22087000,-93.28
22096000,-93.87
22105000,-92.38
22114000,-92.29
22123000,-91.03
22132000,-91.88
22141000,-92.12
22150000,-93.38
22159000,-92.29
22168000,-92.29
22177000,-92.64
22186000,-92.64
22195000,-92.72
22204000,-93.97
22213000,-93.28
22222000,-92.12
22231000,-92.47
22240000,-92.82
22249000,-91.8
22258000,-93
22267000,-93.47
22276000,-93
22285000,-93.57
22294000,-92.21
22303000,-92.47
22312000,-93.18
22321000,-92.04
22330000,-92.63
22339000,-91.48
22348000,-91.88
22357000,-92.12
22366000,-92.82
22375000,-92.55
22384000,-93.76
22393000,-92.91
22402000,-92.38
22411000,-93.37
22420000,-91.95
22429000,-93.76
22438000,-92.82
22447000,-92.63
22456000,-93.57
22465000,-91.8
22474000,-91.72
22483000,-91.72
22492000,-92.63
22501000,-92.91
22510000,-91.95
22519000,-92.38
22528000,-91.56
22537000,-93.66
22546000,-92.38
22555000,-92.99
22564000,-91.48
22573000,-92.88
22582000,-91.86
22591000,-92.53
22600000,-91.62
22609000,-92.97
22618000,-93.16
22627000,-92.88
22636000,-92.02
22645000,-94.89
22654000,-91.62
22663000,-93.25
22672000,-93.83
22681000,-93.83
22690000,-92.53
22699000,-93.93
22708000,-92.11
22717000,-92.88
22726000,-93.44
22735000,-93.83
22744000,-93.54
22753000,-92.19
22762000,-94.24
22771000,-92.61
22780000,-93.63
22789000,-93.63
22798000,-93.63
22807000,-94.03
22816000,-92.02
22825000,-94.35
22834000,-93.93
22843000,-93.44
22852000,-93.44
22861000,-93.53
22870000,-92.97
22879000,-93.83
22888000,-94.03
22897000,-91.09
22906000,-94.56
22915000,-92.61
22924000,-92.18
22933000,-94.13
22942000,-93.53
22951000,-93.24
22960000,-93.63
22969000,-93.53
22978000,-94.03
22987000,-93.44
22996000,-92.78
23005000,-94.56
23014000,-93.53
23023000,-92.7
23032000,-93.82
23041000,-92.27
23050000,-94.67
23059000,-91.7
23068000,-91.54
23077000,-94.03
23086000,-93.82
23095000,-93.06
23104000,-91.86
23113000,-92.78
23122000,-93.53
23131000,-92.02
23140000,-92.44
23149000,-94.24
23158000,-92.97
23167000,-93.31
23176000,-92.49
23185000,-92.66
23194000,-91.51
23203000,-93.3
23212000,-92.15
23221000,-93.4
23230000,-93.21
23239000,-93.21
23248000,-93.9
23257000,-91.98
23266000,-94.2
23275000,-93.6
23284000,-93.02
23293000,-93.02
23302000,-93.02
23311000,-92.75
23320000,-92.85
23329000,-92.57
23338000,-93.21
23347000,-93.02
23356000,-94.41
23365000,-93.21
23374000,-92.84
23383000,-91.9
23392000,-93.99
23401000,-93.4
23410000,-94.2
23419000,-91.82
23428000,-93.89
23437000,-93.59
23446000,-92.84
23455000,-92.57
23464000,-92.84
23473000,-94.74
23482000,-93.02
23491000,-91.98
23500000,-92.4
23509000,-92.31
23518000,-90.63
23527000,-93.02
23536000,-93.79
23545000,-93.89
23554000,-93.99
23563000,-93.5
23572000,-92.15
23581000,-91.74
23590000,-92.75
23599000,-93.4
23608000,-94.1
23617000,-94.2
23626000,-93.99
23635000,-92.75
23644000,-92.57
23653000,-93.4
23662000,-92.84
23671000,-93.99
23680000,-93.99
23689000,-93.59
23698000,-91.82
23707000,-93.49
23716000,-90.91
23725000,-92.4
23734000,-92.31
23743000,-93.3
23752000,-93.66
23761000,-93.36
23770000,-93.75
23779000,-92.62
23788000,-90.74
23797000,-93.75
23806000,-92.46
23815000,-94.27
23824000,-93.36
23833000,-93.27
23842000,-93.36
23851000,-94.17
23860000,-93.95
23869000,-93.56
23878000,-94.17
23887000,-94.6
23896000,-93.36
23905000,-93.36
23914000,-92.98
23923000,-92.9
23932000,-94.38
23941000,-92.9
23950000,-92.11
23959000,-93.56
23968000,-93.75
23977000,-93.27
23986000,-92.37
23995000,-93.95
24004000,-92.81
24013000,-92.45
24022000,-92.03
24031000,-92.71
24040000,-92.62
24049000,-92.62
24058000,-94.16
24067000,-93.26
24076000,-92.62
24085000,-93.17
24094000,-91.94
24103000,-93.65
24112000,-92.89
24121000,-93.46
24130000,-92.36
24139000,-93.36
24148000,-93.26
24157000,-93.17
24166000,-93.26
24175000,-91.01
24184000,-93.08
24193000,-92.89
24202000,-94.06
24211000,-94.06
24220000,-92.53
24229000,-93.17
24238000,-93.36
24247000,-90.94
24256000,-94.06
24265000,-93.26
24274000,-94.16
24283000,-92.62
24292000,-92.27
24301000,-93.75
24310000,-93.75
24319000,-91.7
24328000,-93.55
24337000,-92.62
24346000,-93.26
24355000,-92.36
24364000,-92.27
24373000,-93.55
24382000,-92.53
24391000,-93.26
24400000,-93.55
24409000,-90.38
24418000,-92.45
24427000,-92.98
24436000,-93.36
24445000,-92.8
24454000,-91.94
24463000,-92.45
24472000,-93.65
24481000,-93.55
24490000,-92.62
24499000,-90.73
24508000,-92.27
24517000,-93.75
24526000,-92.8
24535000,-92.62
24544000,-93.08
24553000,-93.36
24562000,-92.98
24571000,-92.45
24580000,-93.75
24589000,-92.27
24598000,-94.16
24607000,-92.27
24616000,-92.19
24625000,-91.94
24634000,-92.1
24643000,-91.46
24652000,-93.07
24661000,-91.94
24670000,-92.8
24679000,-92.45
24688000,-91.94
24697000,-92.36
24706000,-91.78
24715000,-92.1
24724000,-94.26
24733000,-92.27
24742000,-92.62
24751000,-92.53
24760000,-92.27
24769000,-93.07
24778000,-91.7
24787000,-92.61
24796000,-93.16
24805000,-92.45
24814000,-93.45
24823000,-92.45
24832000,-93.55
24841000,-92.27
24850000,-92.1
24859000,-92.8
24868000,-93.65
24877000,-93.26
24886000,-92.36
24895000,-91.78
24904000,-93.16
24913000,-92.61
24922000,-92.1
24931000,-92.02
24940000,-92.83
24949000,-93.11
24958000,-91.81
24967000,-93.39
24976000,-93.01
24985000,-92.92
24994000,-93.01
25003000,-92.3
25012000,-92.39
25021000,-92.13
25030000,-92.92
25039000,-91.97
25048000,-92.13
25057000,-92.65
25066000,-91.89
25075000,-91.73
25084000,-92.56
25093000,-92.22
25102000,-94.19
25111000,-91.57
25120000,-92.83
25129000,-90.17
25138000,-92.92
25147000,-92.3
25156000,-93.29
25165000,-93.58
25174000,-92.65
25183000,-91.19
25192000,-92.05
25201000,-92.48
25210000,-91.65
25219000,-92.3
25228000,-92.83
25237000,-91.89
25246000,-93.19
25255000,-92.64
25264000,-93.01
25273000,-94.19
25282000,-89.65
25291000,-93.01
25300000,-91.97
25309000,-92.56
25318000,-92.92
25327000,-91.65
25336000,-90.76
25345000,-91.65
25354000,-93.29
25363000,-93.1
25372000,-93.29
25381000,-91.34
25390000,-92.83
25399000,-92.83
25408000,-93.58
25417000,-92.83
25426000,-93.1
25435000,-92.55
25444000,-93.19
25453000,-93
25462000,-90.54
25471000,-91.65
25480000,-94.29
25489000,-91.49
25498000,-91.8
25507000,-91.65
25516000,-92.68
25525000,-92.86
25534000,-91.92
25543000,-91.22
25552000,-91.22
25561000,-92.68
25570000,-92.86
25579000,-93.13
25588000,-94.22
25597000,-92.33
25606000,-92.76
25615000,-91.92
25624000,-92.33
25633000,-93.51
25642000,-93.32
25651000,-93.04
25660000,-91.92
25669000,-93.61
25678000,-93.32
25687000,-92.25
25696000,-92.67
25705000,-91.37
25714000,-92.42
25723000,-92.95
25732000,-92.86
25741000,-92.51
25750000,-91.92
25759000,-91.76
25768000,-93.04
25777000,-91.45
25786000,-91.68
25795000,-92.33
25804000,-92.67
25813000,-91.99
25822000,-93.41
25831000,-92.59
25840000,-92.08
25849000,-91.99
25858000,-91.91
25867000,-93.13
25876000,-94
25885000,-91.99
25894000,-93.03
25903000,-90.79
25912000,-91.22
25921000,-93.51
25930000,-92.86
25939000,-91.91
25948000,-93.13
25957000,-91.22
25966000,-91.75
25975000,-93.8
25984000,-91.6
25993000,-93.41
26002000,-92.5
26011000,-93.61
26020000,-91.91
26029000,-92.58
26038000,-92.67
26047000,-93.03
26056000,-91.67
26065000,-92.33
26074000,-92.67
26083000,-92.58
26092000,-93.22
26101000,-91.99
26110000,-92.67
26119000,-91.26
26128000,-91.96
26137000,-93.48
26146000,-93
26155000,-92.47
26164000,-91.72
26173000,-93
26182000,-91.41
26191000,-92.47
26200000,-93
26209000,-91.96
26218000,-92.73
26227000,-92.47
26236000,-91.18
26245000,-91.96
26254000,-92.91
26263000,-92.29
26272000,-93.57
26281000,-91.11
26290000,-92.47
26299000,-91.96
26308000,-92.82
26317000,-90.16
26326000,-93.76
26335000,-91.96
26344000,-92.82
26353000,-91.64
26362000,-92.64
26371000,-92.12
26380000,-91.48
26389000,-93.18
26398000,-92.47
26407000,-93
26416000,-91.64
26425000,-93.67
26434000,-91.96
26443000,-93.57
26452000,-92.29
26461000,-91.8
26470000,-91.48
26479000,-93.76
26488000,-92.63
26497000,-93
26506000,-94.07
26515000,-92.63
26524000,-93
26533000,-91.11
26542000,-92.47
26551000,-93.37
26560000,-92.82
26569000,-92.38
26578000,-92.04
26587000,-91.18
26596000,-93
26605000,-92.72
26614000,-91.95
26623000,-92.47
26632000,-90.61
26641000,-92.04
26650000,-92.04
26659000,-92.47
26668000,-92.04
26677000,-92.99
26686000,-92.47
26695000,-92.29
26704000,-92.99
26713000,-92.72
26722000,-93.37
26731000,-93.37
26740000,-90.46
26749000,-92.54
26758000,-92.91
26767000,-91.95
26776000,-93.76
26785000,-91.18
26794000,-92.63
26803000,-93.28
26812000,-91.18
26821000,-91.95
26830000,-93.66
26839000,-92.21
26848000,-91.64
26857000,-92.82
26866000,-92.21
26875000,-93.09
26884000,-91.71
26893000,-92.72
26902000,-93.09
26911000,-92.63
26920000,-90.6
26929000,-91.33
26938000,-93.37
26947000,-92.82
26956000,-92.63
26965000,-90.74
26974000,-91.4
26983000,-91.95
26992000,-92.21
27001000,-92.82
27010000,-92.54
27019000,-93.09
27028000,-93.37
27037000,-92.46
27046000,-92.54
27055000,-93.18
27064000,-93.18
27073000,-93.76
27082000,-91.47
27091000,-91.17
27100000,-92.29
27109000,-92.63
27118000,-92.72
27127000,-91.95
27136000,-93.37
27145000,-92.9
27154000,-91.79
27163000,-92.12
27172000,-91.1
27181000,-90.74
27190000,-92.9
27199000,-91.47
27208000,-91.71
27217000,-92.12
27226000,-93.27
27235000,-91.95
27244000,-93.09
27253000,-92.54
27262000,-92.81
27271000,-90.46
27280000,-93.96
27289000,-90.92
27298000,-91.66
27307000,-94.1
27316000,-91.98
27325000,-92.07
27334000,-92.32
27343000,-93.4
27352000,-90.99
27361000,-91.59
27370000,-91.74
27379000,-92.49
27388000,-90.49
27397000,-89.93
27406000,-92.85
27415000,-92.93
27424000,-93.02
27433000,-92.93
27442000,-91.66
27451000,-92.85
27460000,-91.82
27469000,-92.93
27478000,-91.98
27487000,-92.93
27496000,-93.12
27505000,-92.32
27514000,-93.4
27523000,-92.24
27532000,-92.15
27541000,-92.57
27550000,-94.31
27559000,-93.4
27568000,-93.3
27577000,-92.66
27586000,-93.59
27595000,-94.41
27604000,-93.4
27613000,-91.28
27622000,-92.49
27631000,-92.4
27640000,-92.75
27649000,-91.98
27658000,-93.02
27667000,-91.98
27676000,-92.66
27685000,-93.02
27694000,-92.15
27703000,-91.5
27712000,-93.99
27721000,-92.23
27730000,-93.12
27739000,-92.07
27748000,-94.2
27757000,-92.49
27766000,-91.5
27775000,-92.93
27784000,-92.15
27793000,-93.59
27802000,-92.31
27811000,-93.4
27820000,-92.15
27829000,-92.4
27838000,-92.15
27847000,-90.77
27856000,-94.09
27865000,-92.84
27874000,-91.98
27883000,-93.72
27892000,-91.91
27901000,-92.59
27910000,-92.78
27919000,-92.5
27928000,-92.59
27937000,-91.28
27946000,-92.68
27955000,-92.42
27964000,-92.33
27973000,-92.95
27982000,-92.5
27991000,-92.86
28000000,-92.42
28009000,-91.59
28018000,-92.33
28027000,-93.14
28036000,-92.42
28045000,-92.24
28054000,-92.24
28063000,-92.95
28072000,-92.42
28081000,-91.43
28090000,-92.77
28099000,-92.59
28108000,-92.95
28117000,-89.98
28126000,-93.52
28135000,-92.24
28144000,-92.77
28153000,-92.86
28162000,-91.21
28171000,-93.05
28180000,-92.16
28189000,-92.24
28198000,-92.24
28207000,-92.16
28216000,-92
28225000,-90.49
28234000,-92.59
28243000,-92.77
28252000,-92.95
28261000,-90.84
28270000,-93.13
28279000,-92.95
28288000,-91.36
28297000,-93.33
28306000,-91.43
28315000,-93.13
28324000,-92.42
28333000,-91.75
28342000,-93.52
28351000,-92.95
28360000,-92.33
28369000,-91.59
28378000,-90.24
28387000,-92.07
28396000,-93.23
28405000,-92.07
28414000,-90.98
28423000,-93.04
28432000,-92.77
28441000,-93.23
28450000,-91.75
28459000,-91.83
28468000,-92.33
28477000,-92.65
28486000,-93.3
28495000,-93.49
28504000,-93.3
28513000,-91.81
28522000,-91.89
28531000,-93.2
28540000,-91.97
28549000,-92.14
28558000,-92.74
28567000,-92.23
28576000,-92.31
28585000,-93.49
28594000,-92.4
28603000,-93.59
28612000,-92.14
28621000,-92.56
28630000,-91.42
28639000,-93.2
28648000,-92.14
28657000,-92.23
28666000,-93.49
28675000,-91.81
28684000,-91.97
28693000,-91.97
28702000,-93.11
28711000,-93.01
28720000,-93.49
28729000,-91.97
28738000,-90.48
28747000,-90.62
28756000,-91.12
28765000,-91.19
28774000,-93.49
28783000,-93.2
28792000,-93.01
28801000,-92.39
28810000,-92.14
28819000,-93.39
28828000,-92.65
28837000,-93.39
28846000,-93.39
28855000,-93.29
28864000,-90.55
28873000,-92.23
28882000,-93.39
28891000,-92.3
28900000,-93.01
28909000,-90.9
28918000,-92.56
28927000,-93.29
28936000,-91.57
28945000,-92.48
28954000,-91.81
28963000,-92.56
28972000,-93.01
28981000,-90.76
28990000,-91.19
28999000,-91.97
29008000,-91.65
29017000,-92.83
29026000,-93.01
29035000,-91.49
29044000,-92.3
29053000,-92.48
29062000,-91.65
29071000,-92.92
29080000,-93.39
29089000,-92.48
29098000,-92.83
29107000,-92.48
29116000,-93.88
29125000,-93.01
29134000,-93.78
29143000,-93.58
29152000,-92.39
29161000,-91.34
29170000,-93.68
29179000,-92.13
29188000,-92.48
29197000,-91.73
29206000,-93.19
29215000,-91.81
29224000,-92.65
29233000,-91.19
29242000,-92.56
29251000,-93.58
29260000,-92.3
29269000,-90.97
29278000,-91.89
29287000,-91.65
29296000,-93.19
29305000,-92.65
29314000,-92.39
29323000,-91.81
29332000,-90.9
29341000,-90.9
29350000,-93.19
29359000,-91.04
29368000,-92.13
29377000,-91.04
29386000,-93.98
29395000,-93.58
29404000,-91.73
29413000,-90.17
29422000,-92.48
29431000,-92.64
29440000,-92.73
29449000,-93.98
29458000,-91.12
29467000,-93.29
29476000,-93.01
29485000,-93.1
29494000,-93.19
29503000,-91.57
29512000,-92.83
29521000,-93.01
29530000,-93.19
29539000,-92.64
29548000,-92.83
29557000,-93.01
29566000,-92.83
29575000,-91.04
29584000,-92.48
29593000,-93.38
29602000,-92.64
29611000,-91.96
29620000,-90.9
29629000,-91.57
29638000,-93.48
29647000,-92.64
29656000,-92.55
29665000,-91.45
29674000,-91.61
29683000,-92.44
29692000,-92.79
29701000,-92.97
29710000,-94.36
29719000,-92.97
29728000,-92.35
29737000,-92.97
29746000,-93.16
29755000,-93.84
29764000,-92.19
29773000,-91.61
29782000,-93.35
29791000,-92.02
29800000,-92.79
29809000,-91
29818000,-91.85
29827000,-90.58
29836000,-91.93
29845000,-91.38
29854000,-92.97
29863000,-91.77
29872000,-93.35
29881000,-94.15
29890000,-91.15
29899000,-91.45
29908000,-93.15
29917000,-91.69
29926000,-91.61
29935000,-91.61
29944000,-90.51
29953000,-89.87
29962000,-90
29971000,-88.23
29980000,-79.97
29989000,-69.64
29998000,-46.39
30000000,-60.46
