Frequency (Hz),Amplitude (dBm)
5000000,-50.79
5009000,-70.12
5018000,-84.51
5027000,-90.16
5036000,-90.89
5045000,-89.54
5054000,-89.66
5063000,-91.7
5072000,-90.89
5081000,-89.91
5090000,-90.6
5099000,-91.78
5108000,-92.09
5117000,-91.32
5126000,-91.7
5135000,-91.03
5144000,-92.18
5153000,-91.78
5162000,-90.04
5171000,-90.16
5180000,-91.32
5189000,-91.62
5198000,-91.85
5207000,-91.7
5216000,-90.53
5225000,-91.03
5234000,-89.66
5243000,-88.72
5252000,-91.62
5261000,-90.74
5270000,-89.06
5279000,-91.02
5288000,-90.43
5297000,-90.71
5306000,-90.78
5315000,-89.94
5324000,-91.35
5333000,-91.5
5342000,-90.33
5351000,-90.78
5360000,-90.46
5369000,-91.65
5378000,-90.33
5387000,-89.69
5396000,-92.38
5405000,-91.81
5414000,-91.73
5423000,-91.06
5432000,-91.81
5441000,-92.46
5450000,-90.56
5459000,-90.56
5468000,-90.32
5477000,-91.81
5486000,-89.57
5495000,-91.96
5504000,-90.56
5513000,-92.12
5522000,-92.38
5531000,-91.43
5540000,-90.07
5549000,-90.07
5558000,-89.94
5567000,-92.55
5576000,-91.65
5585000,-93.16
5594000,-92.04
5603000,-90.63
5612000,-90.19
5621000,-90.91
5630000,-92.04
5639000,-92.29
5648000,-90.63
5657000,-91.43
5666000,-90.77
5675000,-91.8
5684000,-91.65
5693000,-90.91
5702000,-91.35
5711000,-90.91
5720000,-92.12
5729000,-91.2
5738000,-90.19
5747000,-90.07
5756000,-91.96
5765000,-89.93
5774000,-90.98
5783000,-90.7
5792000,-91.2
5801000,-90.32
5810000,-91.96
5819000,-90.77
5828000,-90.63
5837000,-91.88
5846000,-90.32
5855000,-92.54
5864000,-91.64
5873000,-89.69
5882000,-91.02
5891000,-91.39
5900000,-90.88
5909000,-90.53
5918000,-92.77
5927000,-91.31
5936000,-91.16
5945000,-90.95
5954000,-91.02
5963000,-90.95
5972000,-91.69
5981000,-89.65
5990000,-91.54
5999000,-91.93
6008000,-92.25
6017000,-90.6
6026000,-92.95
6035000,-90.74
6044000,-92.6
6053000,-90.15
6062000,-90.74
6071000,-92.09
6080000,-90.74
6089000,-91.93
6098000,-91.85
6107000,-91.31
6116000,-92.34
6125000,-92.25
6134000,-91.31
6143000,-90.42
6152000,-91.02
6161000,-90.15
6170000,-91.69
6179000,-89.17
6188000,-90.74
6197000,-92.34
6206000,-90.95
6215000,-90.74
6224000,-89.9
6233000,-91.31
6242000,-90.66
6251000,-91.24
6260000,-91.16
6269000,-91.54
6278000,-91.16
6287000,-90.95
6296000,-92.08
6305000,-92.08
6314000,-91.02
6323000,-91.46
6332000,-91.61
6341000,-92.67
6350000,-91.16
6359000,-91.85
6368000,-91.85
6377000,-91.24
6386000,-92.25
6395000,-91.69
6404000,-91.77
6413000,-92.42
6422000,-90.87
6431000,-91.46
6440000,-91.92
6449000,-90.52
6458000,-91.24
6467000,-93.41
6476000,-91.92
6485000,-92.59
6494000,-91.84
6503000,-91.92
6512000,-90.87
6521000,-90.59
6530000,-92.08
6539000,-91.31
6548000,-91.84
6557000,-92.59
6566000,-92.25
6575000,-92.34
6584000,-92.34
6593000,-91.84
6602000,-92.17
6611000,-91.76
6620000,-91.23
6629000,-90.87
6638000,-91.45
6647000,-92.5
6656000,-91.76
6665000,-89.29
6674000,-90.03
6683000,-92.25
6692000,-90.59
6701000,-90.94
6710000,-91.3
6719000,-92
6728000,-91.84
6737000,-90.28
6746000,-90.03
6755000,-91.6
6764000,-91.45
6773000,-90.87
6782000,-91.15
6791000,-92.59
6800000,-90.41
6809000,-90.52
6818000,-90.94
6827000,-91.01
6836000,-91.01
6845000,-91.15
6854000,-92.25
6863000,-92.41
6872000,-93.31
6881000,-91.92
6890000,-91.23
6899000,-91.15
6908000,-91.3
6917000,-91.15
6926000,-92
6935000,-92.08
6944000,-92.41
6953000,-91.6
6962000,-91.76
6971000,-92.59
6980000,-92
6989000,-91.01
6998000,-92.59
7007000,-92
7016000,-92.76
7025000,-92.5
7034000,-92.41
7043000,-88.93
7052000,-92.25
7061000,-90.11
7070000,-93.08
7079000,-92.21
7088000,-92.56
7097000,-90.69
7106000,-92.04
7115000,-91.57
7124000,-92.91
7133000,-91.2
7142000,-90.69
7151000,-91.57
7160000,-91.2
7169000,-91.81
7178000,-89.73
7187000,-91.96
7196000,-91.96
7205000,-91.65
7214000,-92.21
7223000,-91.65
7232000,-92.72
7241000,-91.12
7250000,-91.73
7259000,-92.21
7268000,-91.96
7277000,-91.2
7286000,-91.42
7295000,-91.27
7304000,-91.8
7313000,-89.73
7322000,-91.27
7331000,-92.13
7340000,-91.42
7349000,-91.96
7358000,-91.42
7367000,-92.21
7376000,-90.37
7385000,-91.72
7394000,-92.81
7403000,-92.63
7412000,-91.72
7421000,-91.12
7430000,-91.57
7439000,-90.24
7448000,-90.37
7457000,-92.91
7466000,-91.72
7475000,-91.64
7484000,-91.26
7493000,-92.81
7502000,-92.3
7511000,-92.81
7520000,-90.62
7529000,-91.96
7538000,-92.13
7547000,-91.19
7556000,-91.49
7565000,-90.97
7574000,-91.04
7583000,-90.76
7592000,-92.38
7601000,-92.72
7610000,-92.21
7619000,-90.24
7628000,-91.72
7637000,-91.8
7646000,-92.04
7655000,-92.82
7664000,-89.95
7673000,-90.72
7682000,-93
7691000,-92.73
7700000,-91.98
7709000,-90.47
7718000,-92.91
7727000,-92.47
7736000,-92.31
7745000,-92.31
7754000,-91.98
7763000,-90.34
7772000,-92.47
7781000,-91.98
7790000,-92.47
7799000,-91.44
7808000,-92.82
7817000,-93.18
7826000,-92.14
7835000,-91.51
7844000,-91.59
7853000,-91.9
7862000,-92.73
7871000,-90.65
7880000,-92.14
7889000,-92.9
7898000,-92.73
7907000,-93.56
7916000,-92.56
7925000,-92.82
7934000,-93
7943000,-93.56
7952000,-91.29
7961000,-91.51
7970000,-91.07
7979000,-91.59
7988000,-92.47
7997000,-91.98
8006000,-90.93
8015000,-91.82
8024000,-93
8033000,-93.09
8042000,-90.72
8051000,-92.65
8060000,-92.3
8069000,-91.21
8078000,-91.82
8087000,-92.9
8096000,-92.47
8105000,-91.59
8114000,-92.39
8123000,-92.9
8132000,-92.73
8141000,-92.14
8150000,-90.65
8159000,-93.18
8168000,-91.36
8177000,-91
8186000,-91.66
8195000,-90.93
8204000,-91.9
8213000,-93.36
8222000,-91.44
8231000,-92.75
8240000,-92.58
8249000,-92.16
8258000,-92.75
8267000,-91.37
8276000,-92.75
8285000,-91.91
8294000,-93.29
8303000,-91.75
8312000,-91.14
8321000,-91.59
8330000,-93.29
8339000,-92.07
8348000,-91.75
8357000,-90.58
8366000,-90.58
8375000,-91.91
8384000,-93.11
8393000,-92.49
8402000,-91.99
8411000,-93.29
8420000,-92.4
8429000,-91.37
8438000,-93.29
8447000,-92.75
8456000,-92.15
8465000,-91.59
8474000,-93.29
8483000,-91.75
8492000,-91.29
8501000,-92.4
8510000,-91.83
8519000,-91.52
8528000,-91.37
8537000,-91.37
8546000,-91
8555000,-92.23
8564000,-93.29
8573000,-91.99
8582000,-92.32
8591000,-91.29
8600000,-90.86
8609000,-91.14
8618000,-92.49
8627000,-91.75
8636000,-91.44
8645000,-91.75
8654000,-92.23
8663000,-92.06
8672000,-92.58
8681000,-92.06
8690000,-92.23
8699000,-92.74
8708000,-92.15
8717000,-91.14
8726000,-92.58
8735000,-91.91
8744000,-92.4
8753000,-92.58
8762000,-93.1
8771000,-92.58
8780000,-92.23
8789000,-92.74
8798000,-91.98
8807000,-92.23
8816000,-92.06
8825000,-92.47
8834000,-92.39
8843000,-90.99
8852000,-91.89
8861000,-91.35
8870000,-88.98
8879000,-91.65
8888000,-91.5
8897000,-90.33
8906000,-90.92
8915000,-91.43
8924000,-92.55
8933000,-90.78
8942000,-92.99
8951000,-89.33
8960000,-92.64
8969000,-91.43
8978000,-92.55
8987000,-91.5
8996000,-90.33
9005000,-92.3
9014000,-92.22
9023000,-92.64
9032000,-92.05
9041000,-91.13
9050000,-92.81
9059000,-92.38
9068000,-91.81
9077000,-92.72
9086000,-92.05
9095000,-91.73
9104000,-92.13
9113000,-90.85
9122000,-92.3
9131000,-91.97
9140000,-89.94
9149000,-91.73
9158000,-93.27
9167000,-92.81
9176000,-92.81
9185000,-90.92
9194000,-91.35
9203000,-93.17
9212000,-92.99
9221000,-91.58
9230000,-91.13
9239000,-92.55
9248000,-92.29
9257000,-92.81
9266000,-91.5
9275000,-91.81
9284000,-93.35
9293000,-92.29
9302000,-91.97
9311000,-92.13
9320000,-92.46
9329000,-92.13
9338000,-91.73
9347000,-92.46
9356000,-91.97
9365000,-92.89
9374000,-92.38
9383000,-91.89
9392000,-91.58
9401000,-91.5
9410000,-93.28
9419000,-92.15
9428000,-92.74
9437000,-92.39
9446000,-91.51
9455000,-91.43
9464000,-91.13
9473000,-91.74
9482000,-93.38
9491000,-92.65
9500000,-92.06
9509000,-92.06
9518000,-92.48
9527000,-90
9536000,-92.39
9545000,-90.26
9554000,-92.82
9563000,-92.82
9572000,-92.82
9581000,-93.01
9590000,-89.5
9599000,-92.31
9608000,-91.9
9617000,-91.21
9626000,-93.1
9635000,-93.28
9644000,-91.51
9653000,-92.92
9662000,-92.65
9671000,-92.06
9680000,-93.1
9689000,-90.71
9698000,-91.13
9707000,-91.28
9716000,-91.06
9725000,-91.66
9734000,-91.43
9743000,-92.92
9752000,-92.92
9761000,-91.82
9770000,-92.57
9779000,-92.57
9788000,-92.22
9797000,-91.06
9806000,-92.31
9815000,-93.48
9824000,-92.57
9833000,-92.22
9842000,-92.39
9851000,-91.28
9860000,-93.28
9869000,-91.51
9878000,-92.73
9887000,-92.57
9896000,-92.92
9905000,-91.51
9914000,-90.39
9923000,-92.22
9932000,-90.71
9941000,-91.51
9950000,-91.74
9959000,-92.39
9968000,-92.22
9977000,-88.69
9986000,-81.05
9995000,-58.06
10004000,-56.11
10013000,-77.99
10022000,-86.4
10031000,-91.46
10040000,-92.25
10049000,-91.54
10058000,-90.95
10067000,-93.31
10076000,-92.51
10085000,-92.6
10094000,-92.09
10103000,-91.31
10112000,-90.67
10121000,-91.85
10130000,-92.42
10139000,-91.31
10148000,-90.67
10157000,-93.7
10166000,-93.13
10175000,-91.77
10184000,-90.81
10193000,-93.41
10202000,-93.04
10211000,-92.68
10220000,-91.93
10229000,-91.77
10238000,-92.95
10247000,-90.15
10256000,-92.42
10265000,-90.29
10274000,-90.52
10283000,-91.77
10292000,-93.31
10301000,-91.16
10310000,-92.95
10319000,-92.68
10328000,-92.08
10337000,-91.69
10346000,-92.42
10355000,-93.22
10364000,-92.95
10373000,-92.08
10382000,-90.74
10391000,-90.88
10400000,-91.54
10409000,-92.95
10418000,-91.16
10427000,-90.42
10436000,-90.66
10445000,-92.6
10454000,-93.22
10463000,-92.17
10472000,-92.95
10481000,-92
10490000,-92.6
10499000,-91.85
10508000,-94.09
10517000,-93.41
10526000,-92.67
10535000,-90.73
10544000,-93.31
10553000,-92
10562000,-92.95
10571000,-92.67
10580000,-92.25
10589000,-92
10598000,-91.05
10607000,-91.72
10616000,-91.27
10625000,-91.96
10634000,-93.25
10643000,-92.04
10652000,-92.04
10661000,-92.88
10670000,-93.73
10679000,-91.49
10688000,-91.8
10697000,-91.34
10706000,-92.88
10715000,-91.96
10724000,-92.2
10733000,-91.8
10742000,-92.04
10751000,-92.45
10760000,-93.16
10769000,-92.28
10778000,-90.06
10787000,-91.34
10796000,-92.98
10805000,-91.34
10814000,-91.96
10823000,-91.57
10832000,-92.28
10841000,-91.96
10850000,-90.62
10859000,-93.63
10868000,-93.34
10877000,-92.88
10886000,-92.54
10895000,-93.07
10904000,-91.8
10913000,-92.45
10922000,-91.64
10931000,-93.63
10940000,-91.88
10949000,-92.88
10958000,-92.7
10967000,-92.11
10976000,-92.98
10985000,-90.31
10994000,-92.62
11003000,-93.34
11012000,-92.45
11021000,-93.07
11030000,-92.79
11039000,-92.98
11048000,-92.62
11057000,-91.79
11066000,-91.87
11075000,-91.95
11084000,-90.83
11093000,-89.55
11102000,-93.15
11111000,-91.64
11120000,-93.53
11129000,-92.45
11138000,-91.71
11147000,-92.03
11156000,-91.95
11165000,-92.79
11174000,-91.64
11183000,-92
11192000,-92.5
11201000,-91.3
11210000,-92.17
11219000,-93.12
11228000,-92.59
11237000,-92.84
11246000,-92.76
11255000,-92.84
11264000,-92.67
11273000,-91.76
11282000,-92.17
11291000,-92.17
11300000,-91.3
11309000,-92.94
11318000,-91.3
11327000,-92.76
11336000,-92.59
11345000,-93.21
11354000,-92.59
11363000,-91.23
11372000,-90.73
11381000,-92.41
11390000,-93.4
11399000,-93.69
11408000,-93.5
11417000,-91.76
11426000,-92.76
11435000,-92.94
11444000,-92.24
11453000,-91.53
11462000,-92.59
11471000,-92.41
11480000,-91.68
11489000,-92.75
11498000,-91.6
11507000,-92
11516000,-92.24
11525000,-92.33
11534000,-91.68
11543000,-91.23
11552000,-91.15
11561000,-92.33
11570000,-93.88
11579000,-92.5
11588000,-92.41
11597000,-93.12
11606000,-90.65
11615000,-92
11624000,-91.15
11633000,-90.94
11642000,-91.76
11651000,-91.45
11660000,-92.07
11669000,-93.49
11678000,-91.76
11687000,-92.41
11696000,-93.49
11705000,-93.21
11714000,-92.07
11723000,-93.11
11732000,-93.11
11741000,-92.75
11750000,-92.16
11759000,-92.84
11768000,-91.48
11777000,-91.48
11786000,-93.06
11795000,-91.95
11804000,-91.71
11813000,-92.97
11822000,-91.18
11831000,-92.27
11840000,-92.27
11849000,-92.53
11858000,-91.18
11867000,-92.27
11876000,-92.7
11885000,-91.79
11894000,-91.95
11903000,-92.97
11912000,-91.95
11921000,-92.62
11930000,-92.97
11939000,-91.95
11948000,-92.78
11957000,-92.27
11966000,-90.97
11975000,-92.62
11984000,-93.24
11993000,-93.15
12002000,-91.56
12011000,-93.15
12020000,-91.04
12029000,-91.33
12038000,-93.43
12047000,-91.18
12056000,-91.63
12065000,-91.04
12074000,-92.27
12083000,-93.33
12092000,-92.87
12101000,-92.44
12110000,-93.43
12119000,-90.44
12128000,-91.63
12137000,-92.27
12146000,-91.48
12155000,-92.19
12164000,-90.9
12173000,-92.53
12182000,-92.53
12191000,-92.69
12200000,-90.68
12209000,-92.78
12218000,-92.02
12227000,-93.14
12236000,-92.44
12245000,-93.52
12254000,-93.52
12263000,-92.97
12272000,-92.87
12281000,-89.54
12290000,-93.43
12299000,-91.71
12308000,-91.63
12317000,-92.53
12326000,-92.69
12335000,-92.27
12344000,-92.53
12353000,-92.87
12362000,-92.69
12371000,-94.11
12380000,-92.78
12389000,-92.27
12398000,-91.94
12407000,-92.41
12416000,-93.38
12425000,-92.49
12434000,-92.67
12443000,-92.49
12452000,-91.53
12461000,-92
12470000,-92.49
12479000,-92.58
12488000,-92.75
12497000,-92.16
12506000,-91.68
12515000,-93.2
12524000,-92.32
12533000,-92.16
12542000,-93.2
12551000,-91.38
12560000,-91.92
12569000,-94.17
12578000,-93.2
12587000,-92.49
12596000,-92.49
12605000,-92.52
12614000,-92.61
12623000,-91.62
12632000,-92.69
12641000,-92.78
12650000,-91.32
12659000,-91.47
12668000,-92.02
12677000,-91.17
12686000,-92.52
12695000,-91.78
12704000,-93.81
12713000,-93.32
12722000,-92.52
12731000,-92.27
12740000,-92.1
12749000,-92.69
12758000,-91.32
12767000,-92.43
12776000,-92.35
12785000,-92.96
12794000,-90.75
12803000,-92.19
12812000,-92.69
12821000,-92.87
12830000,-91.25
12839000,-92.52
12848000,-92.78
12857000,-92.96
12866000,-91.1
12875000,-92.69
12884000,-92.96
12893000,-93.24
12902000,-90.04
12911000,-92.02
12920000,-92.61
12929000,-92.26
12938000,-92.96
12947000,-91.78
12956000,-91.95
12965000,-92.62
12974000,-92.37
12983000,-93.45
12992000,-90.36
13001000,-91.79
13010000,-91.33
13019000,-94.25
13028000,-92.29
13037000,-91.71
13046000,-90.96
13055000,-92.89
13064000,-91.4
13073000,-92.89
13082000,-90.54
13091000,-92.71
13100000,-92.2
13109000,-92.45
13118000,-91.55
13127000,-91.95
13136000,-91.4
13145000,-92.62
13154000,-93.25
13163000,-91.55
13172000,-91.48
13181000,-91.71
13190000,-92.12
13199000,-92.45
13208000,-90.47
13217000,-92.36
13226000,-92.71
13235000,-92.89
13244000,-91.63
13253000,-92.28
13262000,-92.45
13271000,-91.71
13280000,-93.74
13289000,-92.12
13298000,-90.36
13307000,-91.71
13316000,-92.71
13325000,-93.17
13334000,-92.03
13343000,-90.47
13352000,-93.45
13361000,-92.03
13370000,-92.45
13379000,-91.55
13388000,-91.25
13397000,-92.19
13406000,-91.33
13415000,-92.45
13424000,-91.4
13433000,-91.63
13442000,-92.28
13451000,-92.45
13460000,-91.71
13469000,-91.71
13478000,-92.89
13487000,-91.55
13496000,-92.54
13505000,-91.4
13514000,-92.11
13523000,-92.71
13532000,-93.64
13541000,-91.03
13550000,-91.62
13559000,-91.77
13568000,-92.35
13577000,-92.43
13586000,-92.68
13595000,-93.9
13604000,-92.18
13613000,-93.13
13622000,-93.32
13631000,-90.16
13640000,-91.93
13649000,-91.39
13658000,-91.93
13667000,-93.32
13676000,-93.41
13685000,-92.26
13694000,-94.1
13703000,-92.26
13712000,-94.1
13721000,-93.41
13730000,-92.43
13739000,-90.74
13748000,-92.26
13757000,-91.77
13766000,-91.85
13775000,-92.43
13784000,-93.13
13793000,-93.13
13802000,-94.1
13811000,-92.51
13820000,-93.51
13829000,-92.6
13838000,-91.93
13847000,-92.09
13856000,-93.13
13865000,-92.26
13874000,-92.95
13883000,-93.04
13892000,-93.41
13901000,-91.46
13910000,-92.77
13919000,-93.7
13928000,-91.46
13937000,-92.35
13946000,-92.35
13955000,-91.39
13964000,-91.24
13973000,-89.41
13982000,-92.68
13991000,-92.18
14000000,-92.42
14009000,-91.09
14018000,-93.13
14027000,-92.42
14036000,-93.61
14045000,-92.18
14054000,-92.09
14063000,-91.93
14072000,-94
14081000,-91.24
14090000,-92.26
14099000,-91.93
14108000,-92.6
14117000,-92.42
14126000,-92.09
14135000,-93.31
14144000,-92.01
14153000,-92.68
14162000,-92.42
14171000,-92.6
14180000,-93.51
14189000,-92.6
14198000,-93.22
14207000,-91.85
14216000,-89.9
14225000,-91.24
14234000,-92.95
14243000,-92.42
14252000,-90.88
14261000,-91.54
14270000,-92.95
14279000,-90.42
14288000,-91.31
14297000,-93.51
14306000,-93.31
14315000,-91.61
14324000,-92.42
14333000,-92.34
14342000,-92.09
14351000,-93.13
14360000,-93.89
14369000,-92.68
14378000,-91.31
14387000,-92.09
14396000,-92.09
14405000,-92.09
14414000,-93.41
14423000,-92.6
14432000,-92.34
14441000,-92.76
14450000,-90.59
14459000,-92.95
14468000,-92.01
14477000,-92.68
14486000,-90.15
14495000,-91.54
14504000,-92.42
14513000,-93.41
14522000,-93.04
14531000,-93.04
14540000,-91.46
14549000,-89.77
14558000,-92.42
14567000,-91.16
14576000,-92.51
14585000,-92
14594000,-91.16
14603000,-91.93
14612000,-92.85
14621000,-93.31
14630000,-92
14639000,-92.08
14648000,-93.04
14657000,-92.25
14666000,-92.08
14675000,-92.76
14684000,-93.22
14693000,-92.95
14702000,-92.51
14711000,-91.69
14720000,-92.67
14729000,-92.08
14738000,-91.69
14747000,-92.95
14756000,-92.88
14765000,-93.06
14774000,-92.7
14783000,-93.44
14792000,-93.06
14801000,-91.47
14810000,-93.44
14819000,-92.35
14828000,-92.53
14837000,-91.94
14846000,-93.24
14855000,-91.24
14864000,-92.88
14873000,-90.35
14882000,-93.82
14891000,-92.88
14900000,-92.44
14909000,-92.01
14918000,-91.09
14927000,-92.35
14936000,-92.27
14945000,-91.62
14954000,-90.95
14963000,-91.7
14972000,-90.08
14981000,-85.67
14990000,-73.02
14999000,-52.07
15008000,-68.26
15017000,-82.96
15026000,-89.7
15035000,-90.08
15044000,-90.52
15053000,-92.35
15062000,-89.7
15071000,-91.7
15080000,-90.88
15089000,-92.35
15098000,-92.52
15107000,-93.15
15116000,-91.62
15125000,-92.69
15134000,-91.54
15143000,-93.24
15152000,-92.27
15161000,-94.02
15170000,-93.72
15179000,-92.01
15188000,-92.35
15197000,-93.05
15206000,-92.35
15215000,-93.82
15224000,-90.52
15233000,-92.27
15242000,-92.6
15251000,-90.59
15260000,-92.18
15269000,-92.88
15278000,-93.72
15287000,-92.88
15296000,-92.96
15305000,-92.35
15314000,-91.85
15323000,-93.24
15332000,-92.88
15341000,-93.69
15350000,-91.66
15359000,-92.4
15368000,-92.15
15377000,-92.49
15386000,-93.02
15395000,-92.49
15404000,-91.2
15413000,-92.74
15422000,-91.58
15431000,-91.05
15440000,-91.9
15449000,-91.43
15458000,-91.58
15467000,-92.66
15476000,-91.98
15485000,-92.84
15494000,-92.14
15503000,-92.31
15512000,-93.4
15521000,-93.78
15530000,-93.2
15539000,-93.11
15548000,-91.5
15557000,-92.66
15566000,-94.2
15575000,-92.31
15584000,-92.74
15593000,-92.49
15602000,-92.57
15611000,-90.98
15620000,-91.74
15629000,-92.31
15638000,-91.28
15647000,-92.84
15656000,-91.66
15665000,-90.84
15674000,-92.31
15683000,-90.41
15692000,-91.82
15701000,-92.57
15710000,-92.84
15719000,-92.84
15728000,-92.49
15737000,-92.84
15746000,-91.97
15755000,-91.82
15764000,-93.78
15773000,-91.28
15782000,-93.2
15791000,-92.14
15800000,-93.11
15809000,-92.74
15818000,-91.2
15827000,-91.58
15836000,-92.49
15845000,-91.97
15854000,-93.39
15863000,-93.39
15872000,-92.14
15881000,-92.65
15890000,-92.14
15899000,-91.74
15908000,-92.49
15917000,-92.31
15926000,-91.5
15935000,-91.93
15944000,-93.62
15953000,-90.8
15962000,-93.14
15971000,-91.85
15980000,-92.34
15989000,-92.17
15998000,-92.96
16007000,-92.69
16016000,-92.34
16025000,-93.05
16034000,-93.33
16043000,-91.85
16052000,-91.93
16061000,-93.14
16070000,-92.68
16079000,-93.72
16088000,-92.34
16097000,-91.69
16106000,-92.77
16115000,-92.87
16124000,-91.69
16133000,-93.05
16142000,-93.42
16151000,-93.05
16160000,-90.94
16169000,-92
16178000,-91.08
16187000,-92.34
16196000,-92.77
16205000,-92.52
16214000,-92.87
16223000,-91.93
16232000,-94.54
16241000,-92.77
16250000,-92.52
16259000,-92.34
16268000,-92.52
16277000,-91.69
16286000,-90.94
16295000,-92.68
16304000,-92.34
16313000,-93.04
16322000,-92.96
16331000,-93.42
16340000,-90.44
16349000,-93.33
16358000,-93.23
16367000,-93.42
16376000,-92.87
16385000,-92.09
16394000,-92.34
16403000,-93.04
16412000,-92.43
16421000,-92.96
16430000,-89.32
16439000,-92.17
16448000,-93.14
16457000,-92.17
16466000,-93.62
16475000,-91.84
16484000,-93.33
16493000,-91.84
16502000,-91.31
16511000,-92.95
16520000,-93.04
16529000,-92.9
16538000,-91.8
16547000,-93.08
16556000,-91.56
16565000,-92.9
16574000,-92.99
16583000,-92.37
16592000,-91.88
16601000,-91.96
16610000,-92.55
16619000,-93.08
16628000,-92.37
16637000,-93.45
16646000,-92.37
16655000,-90.54
16664000,-92.99
16673000,-92.46
16682000,-90.47
16691000,-91.56
16700000,-92.62
16709000,-90.68
16718000,-92.71
16727000,-91.87
16736000,-93.45
16745000,-92.37
16754000,-92.8
16763000,-92.9
16772000,-93.07
16781000,-93.45
16790000,-92.62
16799000,-91.64
16808000,-92.12
16817000,-91.95
16826000,-92.46
16835000,-93.17
16844000,-93.26
16853000,-94.04
16862000,-90.82
16871000,-93.65
16880000,-93.36
16889000,-93.07
16898000,-92.37
16907000,-93.55
16916000,-91.71
16925000,-92.62
16934000,-92.9
16943000,-93.07
16952000,-91.95
16961000,-92.54
16970000,-91.56
16979000,-92.12
16988000,-93.26
16997000,-92.71
17006000,-94.04
17015000,-92.8
17024000,-92.37
17033000,-91.79
17042000,-93.65
17051000,-93.07
17060000,-93.07
17069000,-92.62
17078000,-94.04
17087000,-93.45
17096000,-92.45
17105000,-92.12
17114000,-91.25
17123000,-92.86
17132000,-92.16
17141000,-92.16
17150000,-92.51
17159000,-90.51
17168000,-92.86
17177000,-92.33
17186000,-93.22
17195000,-93.22
17204000,-91.6
17213000,-91.68
17222000,-92.51
17231000,-92.33
17240000,-92.51
17249000,-93.04
17258000,-90.2
17267000,-93.04
17276000,-90.58
17285000,-92.16
17294000,-92.08
17303000,-93.13
17312000,-93.42
17321000,-91.92
17330000,-92.86
17339000,-92.33
17348000,-93.04
17357000,-92.67
17366000,-91.68
17375000,-92.25
17384000,-92.51
17393000,-93.04
17402000,-92.33
17411000,-91.68
17420000,-92.42
17429000,-90.65
17438000,-92.67
17447000,-92.16
17456000,-93.22
17465000,-93.41
17474000,-91.91
17483000,-92.25
17492000,-91.52
17501000,-92.76
17510000,-91.76
17519000,-92.51
17528000,-91.15
17537000,-91.76
17546000,-93.32
17555000,-93.32
17564000,-91.99
17573000,-93.41
17582000,-92.67
17591000,-92.5
17600000,-91.99
17609000,-93.91
17618000,-92.16
17627000,-92.33
17636000,-92.33
17645000,-93.91
17654000,-92.86
17663000,-92.67
17672000,-92.67
17681000,-93.7
17690000,-91.75
17699000,-91.22
17708000,-92.94
17717000,-91.37
17726000,-91.52
17735000,-92.86
17744000,-92.67
17753000,-92.33
17762000,-93.41
17771000,-92.67
17780000,-92.58
17789000,-93.61
17798000,-91.83
17807000,-92.94
17816000,-92.08
17825000,-92.58
17834000,-92.41
17843000,-91.52
17852000,-91.83
17861000,-93.41
17870000,-92.16
17879000,-92.16
17888000,-93.51
17897000,-92.5
17906000,-93.41
17915000,-92.86
17924000,-91.83
17933000,-93.03
17942000,-92.67
17951000,-90.92
17960000,-93.6
17969000,-92.94
17978000,-91.36
17987000,-91.83
17996000,-92.85
18005000,-93.51
18014000,-92.67
18023000,-91.99
18032000,-92.76
18041000,-92.25
18050000,-92.76
18059000,-92.76
18068000,-91.83
18077000,-93.51
18086000,-92.32
18095000,-91.91
18104000,-92.58
18113000,-91.21
18122000,-93.6
18131000,-91.21
18140000,-92.76
18149000,-93.13
18158000,-92.16
18167000,-92.32
18176000,-92.16
18185000,-92.67
18194000,-91.59
18203000,-92.85
18212000,-92.16
18221000,-92.67
18230000,-93.8
18239000,-93.13
18248000,-92.08
18257000,-91.91
18266000,-93.13
18275000,-92.5
18284000,-91.51
18293000,-92.85
18302000,-91.83
18311000,-92.08
18320000,-93.7
18329000,-92.75
18338000,-91.67
18347000,-91.99
18356000,-93.7
18365000,-92.15
18374000,-92.67
18383000,-93.03
18392000,-91.91
18401000,-92.5
18410000,-93.6
18419000,-92.5
18428000,-92.85
18437000,-92.94
18446000,-91.99
18455000,-92.41
18464000,-92.24
18473000,-92.5
18482000,-91.59
18491000,-92.07
18500000,-92.58
18509000,-93.03
18518000,-93.21
18527000,-93.6
18536000,-92.07
18545000,-92.5
18554000,-92.15
18563000,-90.92
18572000,-94.42
18581000,-92.66
18590000,-93.41
18599000,-91.67
18608000,-92.75
18617000,-92.66
18626000,-90.19
18635000,-93.79
18644000,-92.85
18653000,-91.67
18662000,-92.15
18671000,-91.91
18680000,-91.67
18689000,-92.75
18698000,-92.75
18707000,-93.21
18716000,-93.31
18725000,-92.75
18734000,-92.66
18743000,-92.85
18752000,-91.67
18761000,-91.83
18770000,-91.83
18779000,-92.85
18788000,-91.98
18797000,-91.67
18806000,-92.32
18815000,-92.07
18824000,-92.15
18833000,-92.32
18842000,-92.41
18851000,-92.15
18860000,-92.66
18869000,-91.21
18878000,-93.02
18887000,-93.12
18896000,-93.5
18905000,-92.66
18914000,-91.74
18923000,-93.12
18932000,-92.41
18941000,-91.67
18950000,-93.12
18959000,-90.77
18968000,-92.85
18977000,-92.75
18986000,-92.49
18995000,-91.51
19004000,-91.82
19013000,-92.66
19022000,-92.15
19031000,-92.66
19040000,-92.85
19049000,-92.15
19058000,-92.85
19067000,-92.4
19076000,-91.66
19085000,-93.21
19094000,-92.93
19103000,-91.21
19112000,-91.36
19121000,-92.15
19130000,-93.99
19139000,-92.32
19148000,-93.12
19157000,-92.66
19166000,-92.57
19175000,-91.43
19184000,-93.59
19193000,-91.43
19202000,-91.82
19211000,-91.35
19220000,-93.02
19229000,-91.2
19238000,-92.15
19247000,-93.89
19256000,-92.84
19265000,-93.4
19274000,-93.12
19283000,-92.32
19292000,-92.57
19301000,-91.98
19310000,-92.84
19319000,-92.15
19328000,-91.9
19337000,-93.21
19346000,-93.02
19355000,-91.05
19364000,-91.66
19373000,-93.21
19382000,-93.12
19391000,-93.3
19400000,-93.3
19409000,-92.23
19418000,-93.2
19427000,-93.3
19436000,-90.77
19445000,-93.4
19454000,-90.7
19463000,-92.66
19472000,-92.15
19481000,-93.5
19490000,-93.46
19499000,-92.72
19508000,-93.09
19517000,-91.42
19526000,-91.27
19535000,-93.76
19544000,-92.64
19553000,-94.06
19562000,-92.3
19571000,-93.08
19580000,-92.38
19589000,-93.08
19598000,-92.38
19607000,-93.08
19616000,-92.47
19625000,-93.08
19634000,-92.91
19643000,-91.81
19652000,-93
19661000,-92.3
19670000,-91.2
19679000,-93.27
19688000,-92.38
19697000,-93.27
19706000,-92.91
19715000,-93.75
19724000,-91.27
19733000,-93.27
19742000,-93.46
19751000,-92.81
19760000,-92.38
19769000,-90.69
19778000,-92.55
19787000,-91.88
19796000,-91.8
19805000,-91.96
19814000,-93.96
19823000,-92.63
19832000,-92.04
19841000,-91.65
19850000,-90.97
19859000,-93.27
19868000,-92.55
19877000,-92.04
19886000,-94.26
19895000,-92.63
19904000,-92.55
19913000,-92.04
19922000,-92.46
19931000,-93.46
19940000,-92.04
19949000,-92.3
19958000,-91.72
19967000,-90.24
19976000,-88.89
19985000,-82.43
19994000,-61.23
20003000,-55.35
20012000,-80.08
20021000,-88.56
20030000,-91.26
20039000,-90.55
20048000,-91.88
20057000,-92.72
20066000,-93.08
20075000,-93.62
20084000,-90.08
20093000,-92.43
20102000,-91.53
20111000,-93.33
20120000,-92.43
20129000,-92.87
20138000,-92.09
20147000,-90.34
20156000,-93.33
20165000,-90.73
20174000,-91.61
20183000,-92.17
20192000,-93.81
20201000,-91.01
20210000,-93.05
20219000,-93.23
20228000,-93.23
20237000,-92.01
20246000,-92.17
20255000,-92.26
20264000,-92.43
20273000,-92.34
20282000,-92.17
20291000,-92.34
20300000,-91.85
20309000,-92.87
20318000,-90.66
20327000,-90.51
20336000,-93.05
20345000,-93.92
20354000,-91.31
20363000,-90.51
20372000,-93.33
20381000,-92.6
20390000,-92.77
20399000,-93.42
20408000,-92.17
20417000,-93.62
20426000,-92.68
20435000,-92.09
20444000,-91.23
20453000,-92.68
20462000,-94.01
20471000,-93.42
20480000,-91.77
20489000,-93.81
20498000,-92
20507000,-93.14
20516000,-93.81
20525000,-92.34
20534000,-92.68
20543000,-93.71
20552000,-92.68
20561000,-91.92
20570000,-91.69
20579000,-94.01
20588000,-92.68
20597000,-92.59
20606000,-93.92
20615000,-93.42
20624000,-93.04
20633000,-90.94
20642000,-92.26
20651000,-92.34
20660000,-92
20669000,-92.95
20678000,-92.77
20687000,-92.59
20696000,-94.33
20705000,-92.68
20714000,-92.68
20723000,-92.17
20732000,-91.53
20741000,-92.68
20750000,-91.53
20759000,-93.52
20768000,-93.23
20777000,-93.14
20786000,-93.81
20795000,-93.71
20804000,-91.76
20813000,-91.52
20822000,-91.92
20831000,-90.2
20840000,-92.51
20849000,-93.23
20858000,-92.17
20867000,-93.61
20876000,-93.04
20885000,-93.04
20894000,-91.84
20903000,-93.42
20912000,-92
20921000,-93.42
20930000,-91.52
20939000,-92.68
20948000,-93.52
20957000,-92.86
20966000,-93.04
20975000,-92.33
20984000,-92.42
20993000,-92.68
21002000,-91.76
21011000,-92.33
21020000,-92.59
21029000,-92.68
21038000,-93.52
21047000,-91.07
21056000,-93.71
21065000,-90.44
21074000,-93.71
21083000,-93.22
21092000,-93.04
21101000,-93.91
21110000,-92.59
21119000,-92.09
21128000,-92.77
21137000,-93.22
21146000,-90.93
21155000,-93.04
21164000,-93.42
21173000,-91.84
21182000,-91.22
21191000,-94.22
21200000,-92.33
21209000,-92.42
21218000,-93.04
21227000,-91.68
21236000,-93.51
21245000,-91.84
21254000,-91.65
21263000,-93.38
21272000,-93.1
21281000,-92.48
21290000,-92.05
21299000,-92.64
21308000,-93.58
21317000,-92.3
21326000,-91.57
21335000,-93.19
21344000,-93.77
21353000,-93
21362000,-93.38
21371000,-92.13
21380000,-92.64
21389000,-93.77
21398000,-93
21407000,-93.38
21416000,-93.38
21425000,-92.64
21434000,-92.47
21443000,-92.05
21452000,-92.64
21461000,-92.22
21470000,-91.96
21479000,-92.55
21488000,-93.1
21497000,-92.64
21506000,-92.22
21515000,-92.55
21524000,-91.8
21533000,-93.1
21542000,-92.47
21551000,-93.58
21560000,-93.77
21569000,-92.3
21578000,-92.3
21587000,-90.75
21596000,-92.13
21605000,-91.04
21614000,-92.73
21623000,-91.11
21632000,-93.28
21641000,-90.29
21650000,-93
21659000,-92.47
21668000,-92.05
21677000,-93.1
21686000,-90.47
21695000,-93
21704000,-91.56
21713000,-92.47
21722000,-94.08
21731000,-92.13
21740000,-91.8
21749000,-93.28
21758000,-91.8
21767000,-92.64
21776000,-92.55
21785000,-93.77
21794000,-90.61
21803000,-92.47
21812000,-92.05
21821000,-92.73
21830000,-92.82
21839000,-93.77
21848000,-92.91
21857000,-91.15
21866000,-93.03
21875000,-92.76
21884000,-92.16
21893000,-94.32
21902000,-92.86
21911000,-92.08
21920000,-91.37
21929000,-94.65
21938000,-93.03
21947000,-93.03
21956000,-92.86
21965000,-92.16
21974000,-93.13
21983000,-92.33
21992000,-92.5
22001000,-91.83
22010000,-91.44
22019000,-93.03
22028000,-92.94
22037000,-93.13
22046000,-92.86
22055000,-91.36
22064000,-92.08
22073000,-93.41
22082000,-92.67
22091000,-92.58
22100000,-93.31
22109000,-90.85
22118000,-92.67
22127000,-93.22
22136000,-92.67
22145000,-92.76
22154000,-93.22
22163000,-91.67
22172000,-94
22181000,-92.5
22190000,-93.22
22199000,-92.16
22208000,-93.22
22217000,-92.08
22226000,-91.99
22235000,-91.36
22244000,-93.22
22253000,-92.5
22262000,-93.41
22271000,-92.67
22280000,-91.59
22289000,-92.58
22298000,-92.94
22307000,-93.7
22316000,-93.6
22325000,-92.16
22334000,-93.03
22343000,-93.03
22352000,-93.51
22361000,-92.85
22370000,-92.67
22379000,-92.67
22388000,-91.51
22397000,-94.32
22406000,-91.83
22415000,-91.83
22424000,-93.8
22433000,-91.21
22442000,-91.36
22451000,-94.53
22460000,-90.64
22469000,-93.03
22478000,-93.21
22487000,-92.67
22496000,-91.67
22505000,-91.99
22514000,-92.94
22523000,-91.83
22532000,-92.32
22541000,-92.32
22550000,-94
22559000,-92.32
22568000,-91.83
22577000,-93.21
22586000,-92.94
22595000,-91.91
22604000,-93.12
22613000,-93.6
22622000,-93.5
22631000,-92.32
22640000,-92.75
22649000,-93.03
22658000,-91.83
22667000,-92.32
22676000,-92.94
22685000,-92.94
22694000,-92.32
22703000,-92.41
22712000,-91.36
22721000,-92.5
22730000,-92.66
22739000,-93.12
22748000,-92.15
22757000,-93.41
22766000,-93.41
22775000,-93.6
22784000,-92.85
22793000,-92.15
22802000,-92.15
22811000,-93.5
22820000,-93.6
22829000,-93.79
22838000,-93.21
22847000,-93.31
22856000,-92.15
22865000,-93.9
22874000,-93.4
22883000,-92.66
22892000,-92.32
22901000,-92.41
22910000,-91.67
22919000,-94.31
22928000,-91.83
22937000,-94.1
22946000,-91.59
22955000,-93.02
22964000,-91.44
22973000,-93.5
22982000,-92.75
22991000,-92.85
23000000,-93.02
23009000,-93.6
23018000,-91.67
23027000,-92.57
23036000,-92.57
23045000,-93.96
23054000,-92.9
23063000,-93.96
23072000,-92.04
23081000,-92.63
23090000,-93.56
23099000,-93.96
23108000,-93.09
23117000,-92.72
23126000,-93.47
23135000,-93.96
23144000,-92.2
23153000,-92.72
23162000,-92.81
23171000,-94.38
23180000,-93.17
23189000,-91.4
23198000,-93.09
23207000,-93.56
23216000,-94.28
23225000,-93.66
23234000,-92.04
23243000,-92.72
23252000,-92.9
23261000,-93.27
23270000,-92.9
23279000,-93.76
23288000,-93.76
23297000,-93.37
23306000,-93.27
23315000,-92.99
23324000,-94.28
23333000,-91.4
23342000,-94.06
23351000,-93.37
23360000,-92.99
23369000,-93.86
23378000,-92.28
23387000,-93.17
23396000,-93.96
23405000,-93.66
23414000,-91.87
23423000,-92.99
23432000,-94.06
23441000,-92.46
23450000,-93.08
23459000,-92.99
23468000,-93.75
23477000,-92.71
23486000,-94.71
23495000,-93.75
23504000,-93.56
23513000,-94.17
23522000,-94.17
23531000,-92.28
23540000,-92.99
23549000,-93.56
23558000,-92.99
23567000,-91.79
23576000,-93.08
23585000,-93.75
23594000,-93.56
23603000,-91.63
23612000,-92.9
23621000,-92.28
23630000,-93.24
23639000,-93.43
23648000,-92.96
23657000,-93.63
23666000,-91.85
23675000,-92.88
23684000,-93.24
23693000,-92.69
23702000,-94.55
23711000,-93.72
23720000,-94.89
23729000,-92.27
23738000,-93.15
23747000,-92.43
23756000,-92.88
23765000,-93.43
23774000,-93.92
23783000,-93.05
23792000,-93.43
23801000,-94.66
23810000,-93.82
23819000,-93.05
23828000,-93.43
23837000,-93.05
23846000,-94.89
23855000,-94.02
23864000,-93.72
23873000,-93.05
23882000,-92.87
23891000,-92.87
23900000,-94.23
23909000,-92.52
23918000,-94.44
23927000,-93.05
23936000,-93.82
23945000,-92.52
23954000,-92.43
23963000,-93.53
23972000,-93.05
23981000,-94.23
23990000,-93.15
23999000,-92.87
24008000,-93.33
24017000,-94.23
24026000,-92.52
24035000,-93.05
24044000,-92.87
24053000,-94.02
24062000,-94.02
24071000,-91.85
24080000,-94.66
24089000,-94.44
24098000,-93.05
24107000,-93.15
24116000,-92.52
24125000,-91.85
24134000,-93.43
24143000,-93.23
24152000,-93.62
24161000,-93.52
24170000,-94.55
24179000,-93.15
24188000,-93.52
24197000,-92.34
24206000,-94.02
24215000,-93.23
24224000,-92.52
24233000,-91.85
24242000,-91.2
24251000,-92.84
24260000,-91.74
24269000,-92.48
24278000,-93.68
24287000,-93.01
24296000,-91.35
24305000,-90.04
24314000,-92.65
24323000,-94.09
24332000,-93.39
24341000,-93.01
24350000,-91.97
24359000,-90.48
24368000,-93.49
24377000,-91.73
24386000,-93.49
24395000,-93.68
24404000,-92.14
24413000,-92.4
24422000,-94.63
24431000,-93.49
24440000,-92.84
24449000,-93.89
24458000,-93.98
24467000,-92.48
24476000,-94.3
24485000,-92.56
24494000,-93.89
24503000,-93.98
24512000,-93.59
24521000,-93.89
24530000,-93.2
24539000,-93.2
24548000,-93.2
24557000,-93.98
24566000,-93.2
24575000,-91.34
24584000,-92.48
24593000,-93.2
24602000,-91.57
24611000,-92.14
24620000,-93.78
24629000,-91.57
24638000,-93.29
24647000,-92.39
24656000,-93.39
24665000,-91.19
24674000,-93.01
24683000,-93.88
24692000,-93.39
24701000,-92.92
24710000,-93.78
24719000,-93.01
24728000,-92.06
24737000,-91.34
24746000,-92.48
24755000,-93.58
24764000,-93.11
24773000,-93.01
24782000,-93.01
24791000,-94.3
24800000,-91.89
24809000,-92.74
24818000,-93.39
24827000,-93.19
24836000,-92.92
24845000,-93.49
24854000,-92.65
24863000,-92.48
24872000,-91.42
24881000,-92.22
24890000,-93.01
24899000,-91.81
24908000,-93.88
24917000,-93.58
24926000,-93.01
24935000,-91.81
24944000,-92.22
24953000,-90.62
24962000,-90.76
24971000,-91.49
24980000,-87.08
24989000,-74.06
24998000,-52.91
25007000,-66.52
25016000,-83.26
25025000,-90.41
25034000,-91.65
25043000,-93.01
25052000,-90.76
25061000,-92.06
25070000,-92.92
25079000,-92.3
25088000,-92.83
25097000,-93.58
25106000,-92.65
25115000,-92.22
25124000,-93.39
25133000,-92.48
25142000,-93.58
25151000,-93.88
25160000,-92.22
25169000,-92.92
25178000,-94.29
25187000,-92.13
25196000,-93.19
25205000,-92.05
25214000,-93.48
25223000,-93.01
25232000,-92.92
25241000,-91.04
25250000,-91.27
25259000,-92.48
25268000,-92.83
25277000,-91.97
25286000,-92.48
25295000,-92.13
25304000,-92.64
25313000,-92.83
25322000,-93.48
25331000,-92.83
25340000,-92.92
25349000,-92.22
25358000,-92.22
25367000,-92.92
25376000,-91.19
25385000,-91.96
25394000,-92.05
25403000,-92.05
25412000,-92.39
25421000,-91.68
25430000,-92.95
25439000,-92.51
25448000,-92.09
25457000,-90.79
25466000,-91.6
25475000,-93.04
25484000,-92.33
25493000,-91.84
25502000,-92.68
25511000,-92.86
25520000,-92.08
25529000,-93.42
25538000,-92.86
25547000,-92.86
25556000,-93.13
25565000,-93.42
25574000,-92.42
25583000,-92.08
25592000,-92.16
25601000,-91.84
25610000,-92.59
25619000,-92.16
25628000,-93.61
25637000,-92
25646000,-92.33
25655000,-92.16
25664000,-92.59
25673000,-93.13
25682000,-93.42
25691000,-92.08
25700000,-91.37
25709000,-91.84
25718000,-91.92
25727000,-91.84
25736000,-91.22
25745000,-91.99
25754000,-93.32
25763000,-90.72
25772000,-92.86
25781000,-92.59
25790000,-93.61
25799000,-91.6
25808000,-93.22
25817000,-92.51
25826000,-93.71
25835000,-93.03
25844000,-92.67
25853000,-93.41
25862000,-93.22
25871000,-91.68
25880000,-92.67
25889000,-92.42
25898000,-92.33
25907000,-93.22
25916000,-90.86
25925000,-91.6
25934000,-93.13
25943000,-91.83
25952000,-91.52
25961000,-92.16
25970000,-92.86
25979000,-93.51
25988000,-90.33
25997000,-92.33
26006000,-91.99
26015000,-92.86
26024000,-90.54
26033000,-92.23
26042000,-91.98
26051000,-91.98
26060000,-92.15
26069000,-93.7
26078000,-89.58
26087000,-93.12
26096000,-91.57
26105000,-91.42
26114000,-94.11
26123000,-91.73
26132000,-93.03
26141000,-92.06
26150000,-91.12
26159000,-91.04
26168000,-93.9
26177000,-92.93
26186000,-92.23
26195000,-92.4
26204000,-93.51
26213000,-90.68
26222000,-93.7
26231000,-91.19
26240000,-92.48
26249000,-92.76
26258000,-90.33
26267000,-91.73
26276000,-92.75
26285000,-91.89
26294000,-92.57
26303000,-92.15
26312000,-91.73
26321000,-91.34
26330000,-91.73
26339000,-94.11
26348000,-92.75
26357000,-92.75
26366000,-93.03
26375000,-93.7
26384000,-91.26
26393000,-92.4
26402000,-92.75
26411000,-91.89
26420000,-92.57
26429000,-91.04
26438000,-94.11
26447000,-91.26
26456000,-93.31
26465000,-91.89
26474000,-90.96
26483000,-91.26
26492000,-91.81
26501000,-91.73
26510000,-91.81
26519000,-91.89
26528000,-92.14
26537000,-91.26
26546000,-93.9
26555000,-93.11
26564000,-92.4
26573000,-91.65
26582000,-92.4
26591000,-92.84
26600000,-90.68
26609000,-93.67
26618000,-92.12
26627000,-91.26
26636000,-91.8
26645000,-92.21
26654000,-91.56
26663000,-88.92
26672000,-92.47
26681000,-92.99
26690000,-93.47
26699000,-92.99
26708000,-91.8
26717000,-93.37
26726000,-93.57
26735000,-90.96
26744000,-92.04
26753000,-91.48
26762000,-91.33
26771000,-93.37
26780000,-92.91
26789000,-93.18
26798000,-92.99
26807000,-93.76
26816000,-91.11
26825000,-93.37
26834000,-92.54
26843000,-92.99
26852000,-93.76
26861000,-91.26
26870000,-92.29
26879000,-92.12
26888000,-91.26
26897000,-94.07
26906000,-93.18
26915000,-90.29
26924000,-91.48
26933000,-92.82
26942000,-93.66
26951000,-91.87
26960000,-92.04
26969000,-93.18
26978000,-92.29
26987000,-92.63
26996000,-90.15
27005000,-92.9
27014000,-92.21
27023000,-91.25
27032000,-92.82
27041000,-92.72
27050000,-92.99
27059000,-93.18
27068000,-92.46
27077000,-93.37
27086000,-90.88
27095000,-92.99
27104000,-92.54
27113000,-92.9
27122000,-92.12
27131000,-93.56
27140000,-91.95
27149000,-92.46
27158000,-92.37
27167000,-92.29
27176000,-92.46
27185000,-92.72
27194000,-92.15
27203000,-91.98
27212000,-91.36
27221000,-92.41
27230000,-93.12
27239000,-93.79
27248000,-92.85
27257000,-93.12
27266000,-92.41
27275000,-92.24
27284000,-90.49
27293000,-92.66
27302000,-92.85
27311000,-93.6
27320000,-92.24
27329000,-91.06
27338000,-92.49
27347000,-93.21
27356000,-92.85
27365000,-92.66
27374000,-92.66
27383000,-92.66
27392000,-91.82
27401000,-92.66
27410000,-92.49
27419000,-91.51
27428000,-92.15
27437000,-93.4
27446000,-92.32
27455000,-91.82
27464000,-92.15
27473000,-92.93
27482000,-91.66
27491000,-94.2
27500000,-91.82
27509000,-92.85
27518000,-91.35
27527000,-92.07
27536000,-91.5
27545000,-91.74
27554000,-93.02
27563000,-93.02
27572000,-92.32
27581000,-92.49
27590000,-91.66
27599000,-92.84
27608000,-91.98
27617000,-93.79
27626000,-90.49
27635000,-91.98
27644000,-92.15
27653000,-93.21
27662000,-93.4
27671000,-91.9
27680000,-93.69
27689000,-91.66
27698000,-93.4
27707000,-92.84
27716000,-91.82
27725000,-91.82
27734000,-92.07
27743000,-93.02
27752000,-91.35
27761000,-93.2
27770000,-91.9
27779000,-92.84
27788000,-92.66
27797000,-92.84
27806000,-93.79
27815000,-92.31
27824000,-93.12
27833000,-92.31
27842000,-92.84
27851000,-92.49
27860000,-92.49
27869000,-92.49
27878000,-93.3
27887000,-92.4
27896000,-91.98
27905000,-92.15
27914000,-93.59
27923000,-92.66
27932000,-93.4
27941000,-93.4
27950000,-92.07
27959000,-91.43
27968000,-90.77
27977000,-91.9
27986000,-93.2
27995000,-94.41
28004000,-91.43
28013000,-92.49
28022000,-93.2
28031000,-92.49
28040000,-92.84
28049000,-91.98
28058000,-92.14
28067000,-92.93
28076000,-90.77
28085000,-91.82
28094000,-92.49
28103000,-91.35
28112000,-91.35
28121000,-92.49
28130000,-92.49
28139000,-93.02
28148000,-90.77
28157000,-93.2
28166000,-93.02
28175000,-90.91
28184000,-92.23
28193000,-92.84
28202000,-92.57
28211000,-92.14
28220000,-93.02
28229000,-93.59
28238000,-93.59
28247000,-92.84
28256000,-91.43
28265000,-93.39
28274000,-93.11
28283000,-92.65
28292000,-93.78
28301000,-92.4
28310000,-92.06
28319000,-91.97
28328000,-92.84
28337000,-92.93
28346000,-92.74
28355000,-92.56
28364000,-92.06
28373000,-93.01
28382000,-92.65
28391000,-92.65
28400000,-92.14
28409000,-92.14
28418000,-92.48
28427000,-92.48
28436000,-91.66
28445000,-92.84
28454000,-93.59
28463000,-92.48
28472000,-91.97
28481000,-93.59
28490000,-94.2
28499000,-92.65
28508000,-92.84
28517000,-92.84
28526000,-91.89
28535000,-91.81
28544000,-91.89
28553000,-92.23
28562000,-92.84
28571000,-92.31
28580000,-91.65
28589000,-90.48
28598000,-91.89
28607000,-91.2
28616000,-92.23
28625000,-92.65
28634000,-92.4
28643000,-91.73
28652000,-92.74
28661000,-93.2
28670000,-90.41
28679000,-92.48
28688000,-92.84
28697000,-91.2
28706000,-92.31
28715000,-92.84
28724000,-92.31
28733000,-91.65
28742000,-90.55
28751000,-91.49
28760000,-89.54
28769000,-92.06
28778000,-92.06
28787000,-92.06
28796000,-92.31
28805000,-91.97
28814000,-93.01
28823000,-92.31
28832000,-92.83
28841000,-91.81
28850000,-91.42
28859000,-93.78
28868000,-93.2
28877000,-92.83
28886000,-92.48
28895000,-93.2
28904000,-92.39
28913000,-91.65
28922000,-91.97
28931000,-91.04
28940000,-93.39
28949000,-92.83
28958000,-92.14
28967000,-92.56
28976000,-92.74
28985000,-90.9
28994000,-93.68
29003000,-91.42
29012000,-93.29
29021000,-92.92
29030000,-92.22
29039000,-92.48
29048000,-93.39
29057000,-91.97
29066000,-92.3
29075000,-91.89
29084000,-91.65
29093000,-92.48
29102000,-91.49
29111000,-92.65
29120000,-93.11
29129000,-93.58
29138000,-92.83
29147000,-93.29
29156000,-90.48
29165000,-92.3
29174000,-93.01
29183000,-91.65
29192000,-93.39
29201000,-93.19
29210000,-93.01
29219000,-90.62
29228000,-91.97
29237000,-92.48
29246000,-92.65
29255000,-91.97
29264000,-92.48
29273000,-90.9
29282000,-92.3
29291000,-91.97
29300000,-92.13
29309000,-90.62
29318000,-93.88
29327000,-93.19
29336000,-92.13
29345000,-94.19
29354000,-91.65
29363000,-92.3
29372000,-93.19
29381000,-91.19
29390000,-91.19
29399000,-91.57
29408000,-91.57
29417000,-92.92
29426000,-92.48
29435000,-93.01
29444000,-92.48
29453000,-92.83
29462000,-92.05
29471000,-90.3
29480000,-93.19
29489000,-92.73
29498000,-90.9
29507000,-92.05
29516000,-92.13
29525000,-93.77
29534000,-93.58
29543000,-92.22
29552000,-92.3
29561000,-92.3
29570000,-92.83
29579000,-92.22
29588000,-92.48
29597000,-92.64
29606000,-92.83
29615000,-92.73
29624000,-93.67
29633000,-92.39
29642000,-92.64
29651000,-91.88
29660000,-93.97
29669000,-93.19
29678000,-91.88
29687000,-92.73
29696000,-92.47
29705000,-92.39
29714000,-92.83
29723000,-93.1
29732000,-92.3
29741000,-93.1
29750000,-93.88
29759000,-92.3
29768000,-93.38
29777000,-92.05
29786000,-92.39
29795000,-92.83
29804000,-92.83
29813000,-92.83
29822000,-93.58
29831000,-92.13
29840000,-92.47
29849000,-92.55
29858000,-92.3
29867000,-92.47
29876000,-91.88
29885000,-91.96
29894000,-91.96
29903000,-93.28
29912000,-92.91
29921000,-91.19
29930000,-92.3
29939000,-92.83
29948000,-92.47
29957000,-91.11
29966000,-89.91
29975000,-90.16
29984000,-83.14
29993000,-63.36
30002000,-53.51
30011000,-77.86
30020000,-87.26
30029000,-90.89
30038000,-93.1
30047000,-93.19
30056000,-91.8
30065000,-92.91
30074000,-91.56
30083000,-92.64
30092000,-92.82
30101000,-92.13
30110000,-94.18
30119000,-92.22
30128000,-91.96
30137000,-92.91
30146000,-90.96
30155000,-92.13
30164000,-92.47
30173000,-92.38
30182000,-92.82
30191000,-92.82
30200000,-92.38
30209000,-91.33
30218000,-92.13
30227000,-93.38
30236000,-91.64
30245000,-93.48
30254000,-93.18
30263000,-93.28
30272000,-92.47
30281000,-91.41
30290000,-92.47
30299000,-92.13
30308000,-92.29
30317000,-91.72
30326000,-90.47
30335000,-92.29
30344000,-93.47
30353000,-93.1
30362000,-91.03
30371000,-93
30380000,-92.29
30389000,-92.47
30398000,-92.64
30407000,-93.28
30416000,-91.96
30425000,-93.77
30434000,-92.64
30443000,-91.8
30452000,-91.33
30461000,-92.64
30470000,-92.55
30479000,-93.18
30488000,-92.47
30497000,-92.91
30506000,-93.18
30515000,-93.76
30524000,-92.55
30533000,-92.29
30542000,-93.67
30551000,-93.57
30560000,-92.82
30569000,-93.47
30578000,-93.47
30587000,-93.47
30596000,-93
30605000,-91.96
30614000,-92.38
30623000,-89.9
30632000,-90.16
30641000,-92.47
30650000,-93.76
30659000,-93.09
30668000,-92.47
30677000,-92.12
30686000,-91.8
30695000,-91.48
30704000,-92.55
30713000,-93.67
30722000,-92.12
30731000,-93.37
30740000,-93
30749000,-92.38
30758000,-91.88
30767000,-92.82
30776000,-91.03
30785000,-92.91
30794000,-92.47
30803000,-92.12
30812000,-92.72
30821000,-92.38
30830000,-90.75
30839000,-92.63
30848000,-93.18
30857000,-91.18
30866000,-92.91
30875000,-92.12
30884000,-93.57
30893000,-93.37
30902000,-92.47
30911000,-91.87
30920000,-93.76
30929000,-90.75
30938000,-92.63
30947000,-93.18
30956000,-91.56
30965000,-92.63
30974000,-92.63
30983000,-92.46
30992000,-93.18
31001000,-92.29
31010000,-91.71
31019000,-91.41
31028000,-93.47
31037000,-91.03
31046000,-92.12
31055000,-92.63
31064000,-92.82
31073000,-90.74
31082000,-93.37
31091000,-92.99
31100000,-91.03
31109000,-91.95
31118000,-92.12
31127000,-92.29
31136000,-92.38
31145000,-92.99
31154000,-93.18
31163000,-91.33
31172000,-92.54
31181000,-92.21
31190000,-91.25
31199000,-92.63
31208000,-93.86
31217000,-93.57
31226000,-92.29
31235000,-92.46
31244000,-94.49
31253000,-92.63
31262000,-92.46
31271000,-93.56
31280000,-92.12
31289000,-92.46
31298000,-91.95
31307000,-92.04
31316000,-92.21
31325000,-93.56
31334000,-92.56
31343000,-92.92
31352000,-93.21
31361000,-91.65
31370000,-92.39
31379000,-91.49
31388000,-93.89
31397000,-93.11
31406000,-93.5
31415000,-92.05
31424000,-91.97
31433000,-93.11
31442000,-92.39
31451000,-93.5
31460000,-92.65
31469000,-92.83
31478000,-91.97
31487000,-92.92
31496000,-93.21
31505000,-91.56
31514000,-93.4
31523000,-92.22
31532000,-92.22
31541000,-93.69
31550000,-92.75
31559000,-92.56
31568000,-93.3
31577000,-93.11
31586000,-92.75
31595000,-92.47
31604000,-93.11
31613000,-91.11
31622000,-93.2
31631000,-91.56
31640000,-91.72
31649000,-91.88
31658000,-93.49
31667000,-93.11
31676000,-91.72
31685000,-92.14
31694000,-94.54
31703000,-93.59
31712000,-93.79
31721000,-93.89
31730000,-90.81
31739000,-91.97
31748000,-92.56
31757000,-92.14
31766000,-91.33
31775000,-92.56
31784000,-92.56
31793000,-94.1
31802000,-93.3
31811000,-93.2
31820000,-92.74
31829000,-93.69
31838000,-92.39
31847000,-93.3
31856000,-92.39
31865000,-93.89
31874000,-92.56
31883000,-91.33
31892000,-93.3
31901000,-92.83
31910000,-93.4
31919000,-91.48
31928000,-92.78
31937000,-92.42
31946000,-91.37
31955000,-93.53
31964000,-92.59
31973000,-93.14
31982000,-92.42
31991000,-91.91
32000000,-93.53
32009000,-91.83
32018000,-92.86
32027000,-93.53
32036000,-92.68
32045000,-92.42
32054000,-93.05
32063000,-93.52
32072000,-92.33
32081000,-93.05
32090000,-92.86
32099000,-92.08
32108000,-93.14
32117000,-92.77
32126000,-91.75
32135000,-92.33
32144000,-90.7
32153000,-93.33
32162000,-93.33
32171000,-92.33
32180000,-93.52
32189000,-93.14
32198000,-91.75
32207000,-91.75
32216000,-93.62
32225000,-91.28
32234000,-92.77
32243000,-91.91
32252000,-92.5
32261000,-92.77
32270000,-92.77
32279000,-92.08
32288000,-92.59
32297000,-93.13
32306000,-93.13
32315000,-93.33
32324000,-93.62
32333000,-91.59
32342000,-92.33
32351000,-92.95
32360000,-93.05
32369000,-93.72
32378000,-93.72
32387000,-91.59
32396000,-93.52
32405000,-92.59
32414000,-92
32423000,-93.72
32432000,-92.77
32441000,-92.77
32450000,-92.77
32459000,-92.95
32468000,-91.91
32477000,-91.59
32486000,-94.13
32495000,-92.24
32504000,-93.33
32513000,-90.38
32522000,-91.4
32531000,-92.64
32540000,-91.56
32549000,-93.39
32558000,-93.49
32567000,-92.91
32576000,-91.56
32585000,-93.1
32594000,-92.38
32603000,-92.3
32612000,-91.33
32621000,-93.58
32630000,-93.49
32639000,-92.13
32648000,-92.55
32657000,-93.68
32666000,-91.87
32675000,-94.53
32684000,-93.01
32693000,-92.74
32702000,-91.25
32711000,-92.04
32720000,-93.99
32729000,-93.01
32738000,-91.4
32747000,-93.49
32756000,-92.21
32765000,-93.1
32774000,-93.29
32783000,-93.49
32792000,-93.29
32801000,-93.29
32810000,-93.1
32819000,-93.01
32828000,-91.4
32837000,-92.91
32846000,-93.19
32855000,-91.79
32864000,-92.55
32873000,-91.87
32882000,-91.96
32891000,-91.96
32900000,-91.17
32909000,-91.17
32918000,-92.21
32927000,-91.39
32936000,-91.24
32945000,-92.73
32954000,-92.73
32963000,-91.55
32972000,-91.79
32981000,-93.1
32990000,-93.78
32999000,-93.1
33008000,-91.87
33017000,-93.88
33026000,-93.88
33035000,-92.91
33044000,-92.82
33053000,-90.59
33062000,-91.79
33071000,-93.78
33080000,-92.82
33089000,-91.39
33098000,-93.29
33107000,-93.95
33116000,-92.27
33125000,-93.16
33134000,-93.36
33143000,-92.61
33152000,-92.7
33161000,-92.8
33170000,-93.55
33179000,-92.02
33188000,-91.46
33197000,-92.61
33206000,-92.89
33215000,-92.7
33224000,-93.16
33233000,-92.53
33242000,-93.74
33251000,-92.61
33260000,-92.1
33269000,-93.45
33278000,-92.1
33287000,-92.61
33296000,-91.46
33305000,-92.53
33314000,-93.65
33323000,-90.58
33332000,-93.85
33341000,-93.16
33350000,-92.61
33359000,-92.7
33368000,-91.7
33377000,-92.27
33386000,-93.55
33395000,-92.36
33404000,-93.94
33413000,-92.7
33422000,-93.35
33431000,-93.07
33440000,-92.97
33449000,-93.55
33458000,-91.31
33467000,-90.8
33476000,-91.93
33485000,-93.16
33494000,-92.27
33503000,-92.61
33512000,-93.07
33521000,-92.1
33530000,-93.74
33539000,-91.62
33548000,-92.27
33557000,-91.61
33566000,-91.61
33575000,-91.46
33584000,-93.35
33593000,-91.77
33602000,-92.7
33611000,-93.45
33620000,-92.61
33629000,-92.44
33638000,-92.97
33647000,-91.93
33656000,-92.97
33665000,-91.93
33674000,-93.94
33683000,-93.55
33692000,-92.23
33701000,-92.76
33710000,-92.41
33719000,-92.94
33728000,-93.12
33737000,-94.44
33746000,-91.35
33755000,-94.01
33764000,-92.32
33773000,-94.12
33782000,-92.41
33791000,-93.32
33800000,-92.06
33809000,-92.76
33818000,-93.32
33827000,-93.12
33836000,-93.03
33845000,-92.85
33854000,-92.06
33863000,-93.03
33872000,-92.32
33881000,-92.23
33890000,-92.76
33899000,-92.15
33908000,-92.23
33917000,-94.55
33926000,-92.06
33935000,-92.32
33944000,-91.27
33953000,-94.55
33962000,-91.9
33971000,-92.57
33980000,-92.32
33989000,-90.23
33998000,-93.91
34007000,-92.57
34016000,-92.23
34025000,-92.41
34034000,-92.06
34043000,-92.41
34052000,-93.22
34061000,-93.12
34070000,-93.03
34079000,-92.66
34088000,-94.55
34097000,-93.31
34106000,-94.55
34115000,-91.12
34124000,-91.12
34133000,-94.01
34142000,-91.12
34151000,-92.85
34160000,-92.76
34169000,-93.31
34178000,-92.41
34187000,-93.31
34196000,-94.12
34205000,-92.57
34214000,-93.12
34223000,-91.98
34232000,-91.5
34241000,-93.22
34250000,-92.76
34259000,-93.31
34268000,-91.73
34277000,-91.27
34286000,-92.57
34295000,-92.19
34304000,-93.09
34313000,-92.45
34322000,-93.28
34331000,-92.63
34340000,-92.9
34349000,-90.37
34358000,-92.37
34367000,-92.72
34376000,-92.63
34385000,-93.67
34394000,-93
34403000,-92.45
34412000,-91.08
34421000,-91.54
34430000,-91.62
34439000,-92.81
34448000,-91.78
34457000,-92.03
34466000,-93
34475000,-92.9
34484000,-91.38
34493000,-93.38
34502000,-93.77
34511000,-91.86
34520000,-93.28
34529000,-92.81
34538000,-92.72
34547000,-93
34556000,-92.37
34565000,-91.7
34574000,-92.72
34583000,-92.72
34592000,-93.08
34601000,-91.7
34610000,-93.37
34619000,-92.11
34628000,-93.77
34637000,-92.99
34646000,-91.46
34655000,-92.37
34664000,-91.46
34673000,-93.08
34682000,-92.54
34691000,-93.08
34700000,-92.9
34709000,-92.99
34718000,-92.54
34727000,-93.47
34736000,-92.54
34745000,-92.9
34754000,-93.08
34763000,-91.86
34772000,-90.29
34781000,-92.99
34790000,-92.37
34799000,-94.08
34808000,-93.97
34817000,-92.53
34826000,-92.62
34835000,-92.53
34844000,-93.57
34853000,-92.81
34862000,-93.66
34871000,-92.99
34880000,-91.86
34889000,-92.9
34898000,-92.9
34907000,-91.23
34916000,-92.28
34925000,-92.72
34934000,-92.37
34943000,-91.62
34952000,-92.19
34961000,-91.54
34970000,-89.92
34979000,-87.25
34988000,-77.5
34997000,-53.91
35006000,-63.35
35015000,-82.14
35024000,-88.82
35033000,-91.85
35042000,-91.85
35051000,-93.27
35060000,-93.18
35069000,-91.54
35078000,-92.62
35087000,-92.72
35096000,-94.08
35105000,-93.97
35114000,-91.23
35123000,-92.89
35132000,-92.53
35141000,-92.44
35150000,-92.53
35159000,-93.37
35168000,-92.72
35177000,-93.18
35186000,-91.38
35195000,-92.53
35204000,-91.94
35213000,-92.89
35222000,-94.18
35231000,-93.56
35240000,-93.56
35249000,-92.89
35258000,-93.47
35267000,-93.08
35276000,-92.53
35285000,-92.8
35294000,-93.08
35303000,-92.36
35312000,-93.08
35321000,-91.38
35330000,-93.08
35339000,-92.53
35348000,-92.62
35357000,-92.19
35366000,-92.8
35375000,-93.76
35384000,-94.29
35393000,-93.08
35402000,-93.66
35411000,-92.44
35420000,-93.86
35429000,-92.99
35438000,-94.07
35447000,-92.62
35456000,-93.37
35465000,-91.91
35474000,-92.15
35483000,-91.98
35492000,-92.5
35501000,-91.19
35510000,-91.98
35519000,-92.86
35528000,-92.86
35537000,-90.89
35546000,-92.95
35555000,-93.04
35564000,-92.95
35573000,-93.24
35582000,-93.24
35591000,-93.83
35600000,-91.82
35609000,-91.9
35618000,-91.5
35627000,-92.15
35636000,-92.41
35645000,-93.14
35654000,-93.14
35663000,-91.5
35672000,-92.49
35681000,-92.15
35690000,-92.86
35699000,-91.82
35708000,-92.41
35717000,-92.68
35726000,-93.04
35735000,-93.14
35744000,-91.66
35753000,-92.86
35762000,-92.95
35771000,-93.62
35780000,-91.9
35789000,-93.43
35798000,-92.15
35807000,-93.04
35816000,-93.23
35825000,-91.81
35834000,-93.33
35843000,-93.04
35852000,-92.49
35861000,-92.68
35870000,-92.15
35879000,-90.89
35888000,-91.65
35897000,-92.68
35906000,-92.15
35915000,-92.33
35924000,-92.77
35933000,-91.81
35942000,-91.5
35951000,-93.04
35960000,-92.49
35969000,-93.04
35978000,-92.77
35987000,-93.33
35996000,-93.04
36005000,-91.19
36014000,-90.97
36023000,-93.04
36032000,-93.14
36041000,-93.43
36050000,-93.82
36059000,-93.1
36068000,-91.72
36077000,-93.4
36086000,-91.4
36095000,-93.89
36104000,-92.74
36113000,-93.1
36122000,-91.8
36131000,-93.89
36140000,-92.83
36149000,-91.97
36158000,-93.1
36167000,-91.03
36176000,-91.72
36185000,-91.4
36194000,-92.47
36203000,-91.56
36212000,-92.39
36221000,-91.97
36230000,-92.56
36239000,-92.74
36248000,-92.74
36257000,-92.92
36266000,-93.49
36275000,-92.04
36284000,-93.2
36293000,-92.83
36302000,-92.74
36311000,-92.56
36320000,-92.64
36329000,-91.88
36338000,-91.25
36347000,-93.99
36356000,-93.89
36365000,-93.01
36374000,-91.33
36383000,-93.79
36392000,-93.59
36401000,-91.88
36410000,-93.2
36419000,-92.56
36428000,-93.3
36437000,-93.89
36446000,-91.72
36455000,-92.13
36464000,-92.55
36473000,-93.3
36482000,-93.3
36491000,-93.49
36500000,-93.3
36509000,-91.72
36518000,-92.92
36527000,-92.92
36536000,-92.55
36545000,-92.64
36554000,-93.29
36563000,-91.87
36572000,-93.29
36581000,-91.72
36590000,-91.56
36599000,-93.79
36608000,-93.1
36617000,-94.1
36626000,-93.2
36635000,-92.92
36644000,-92.04
36653000,-92.47
36662000,-92.21
36671000,-91.79
36680000,-92.91
36689000,-93.49
36698000,-92.3
36707000,-91.56
36716000,-93.01
36725000,-92.39
36734000,-92.64
36743000,-93.29
36752000,-92.83
36761000,-93.2
36770000,-93.68
36779000,-92.91
36788000,-92.74
36797000,-92.46
36806000,-92.74
36815000,-93.29
36824000,-92.64
36833000,-93.68
36842000,-93.2
36851000,-91.71
36860000,-92.21
36869000,-92.74
36878000,-91.87
36887000,-93.1
36896000,-92.55
36905000,-92.91
36914000,-93.49
36923000,-93.58
36932000,-92.46
36941000,-92.91
36950000,-93.58
36959000,-92.3
36968000,-92.64
36977000,-93.01
36986000,-91.71
36995000,-91.63
37004000,-92.74
37013000,-92.82
37022000,-91.55
37031000,-92.82
37040000,-93.19
37049000,-91.79
37058000,-93.88
37067000,-93.99
37076000,-94.09
37085000,-92.21
37094000,-92.64
37103000,-92.38
37112000,-91.32
37121000,-94.3
37130000,-93.68
37139000,-89.94
37148000,-92.82
37157000,-93.88
37166000,-93.1
37175000,-93.48
37184000,-93.1
37193000,-93.19
37202000,-92.2
37211000,-92.91
37220000,-93.1
37229000,-90.42
37238000,-92.6
37247000,-93.55
37256000,-92.26
37265000,-92.88
37274000,-92.09
37283000,-92.35
37292000,-90.17
37301000,-92.97
37310000,-92.51
37319000,-94.06
37328000,-94.38
37337000,-92
37346000,-93.16
37355000,-92.88
37364000,-92.17
37373000,-92.09
37382000,-93.85
37391000,-93.25
37400000,-93.35
37409000,-93.06
37418000,-95.18
37427000,-92.79
37436000,-92.88
37445000,-93.85
37454000,-92.88
37463000,-94.16
37472000,-92.88
37481000,-91.83
37490000,-93.95
37499000,-92.26
37508000,-93.06
37517000,-92.97
37526000,-93.54
37535000,-92.17
37544000,-91.68
37553000,-92.6
37562000,-92.17
37571000,-92.17
37580000,-92.42
37589000,-94.94
37598000,-93.84
37607000,-93.35
37616000,-93.06
37625000,-91.83
37634000,-90.91
37643000,-92.7
37652000,-92.34
37661000,-93.54
37670000,-89.9
37679000,-93.16
37688000,-92.87
37697000,-93.45
37706000,-92.42
37715000,-92.7
37724000,-92.17
37733000,-93.06
37742000,-93.54
37751000,-93.25
37760000,-92.42
37769000,-91.59
37778000,-92
37787000,-91.83
37796000,-92.97
37805000,-93.25
37814000,-92.34
37823000,-93.28
37832000,-91.71
37841000,-93.48
37850000,-92.54
37859000,-93.28
37868000,-92.82
37877000,-93.78
37886000,-91.86
37895000,-93.19
37904000,-92.03
37913000,-91.17
37922000,-94.09
37931000,-91.63
37940000,-92.38
37949000,-93.57
37958000,-93.48
37967000,-92.38
37976000,-92.73
37985000,-93
37994000,-92.63
38003000,-90.51
38012000,-92.63
38021000,-91.7
38030000,-93.28
38039000,-93.28
38048000,-92.73
38057000,-92.9
38066000,-93.38
38075000,-93.28
38084000,-92.73
38093000,-91.39
38102000,-93.28
38111000,-93.67
38120000,-92.63
38129000,-92.54
38138000,-93.19
38147000,-92.54
38156000,-92.54
38165000,-92.54
38174000,-93.67
38183000,-93.28
38192000,-92.54
38201000,-92.12
38210000,-92.9
38219000,-94.08
38228000,-92.73
38237000,-92.2
38246000,-93.67
38255000,-93.48
38264000,-93.87
38273000,-92.54
38282000,-94.08
38291000,-92.37
38300000,-92.54
38309000,-93.57
38318000,-91.08
38327000,-92.37
38336000,-92.63
38345000,-92.9
38354000,-92.54
38363000,-92.45
38372000,-93.38
38381000,-93.77
38390000,-92.9
38399000,-93.87
38408000,-93.38
38417000,-93.98
38426000,-92.72
38435000,-94.29
38444000,-94.19
38453000,-92.63
38462000,-92.9
38471000,-93.09
38480000,-92.12
38489000,-93.09
38498000,-92.72
38507000,-93.87
38516000,-92.9
38525000,-92.12
38534000,-93.77
38543000,-92.19
38552000,-91.86
38561000,-94.4
38570000,-92.72
38579000,-91.54
38588000,-91.38
38597000,-92.03
38606000,-92.45
38615000,-92.9
38624000,-92.03
38633000,-92.54
38642000,-92.72
38651000,-92.72
38660000,-93.08
38669000,-93.08
38678000,-90.79
38687000,-91.86
38696000,-93.28
38705000,-94.08
38714000,-92.28
38723000,-90.3
38732000,-92.72
38741000,-92.45
38750000,-92.9
38759000,-93.47
38768000,-93.28
38777000,-93.08
38786000,-92.81
38795000,-91.86
38804000,-93.87
38813000,-93.87
38822000,-92.81
38831000,-92.37
38840000,-92.45
38849000,-93.47
38858000,-92.99
38867000,-92.19
38876000,-93.66
38885000,-94.29
38894000,-93.47
38903000,-93.47
38912000,-94.51
38921000,-93.57
38930000,-91.38
38939000,-92.02
38948000,-93.66
38957000,-92.72
38966000,-91.7
38975000,-92.9
38984000,-91.08
38993000,-93.37
39002000,-91.82
39011000,-91.82
39020000,-92.08
39029000,-92.16
39038000,-92.41
39047000,-93.14
39056000,-91.74
39065000,-92.77
39074000,-92.41
39083000,-92.86
39092000,-92.5
39101000,-92.33
39110000,-92.86
39119000,-92.77
39128000,-91.58
39137000,-93.63
39146000,-92.5
39155000,-92.96
39164000,-93.05
39173000,-93.53
39182000,-94.04
39191000,-92.86
39200000,-92.59
39209000,-93.24
39218000,-93.14
39227000,-92.16
39236000,-91.5
39245000,-92.5
39254000,-93.14
39263000,-93.14
39272000,-92.77
39281000,-93.34
39290000,-92.33
39299000,-91.74
39308000,-92.24
39317000,-90.54
39326000,-92.5
39335000,-93.05
39344000,-92.24
39353000,-92.86
39362000,-94.25
39371000,-93.63
39380000,-93.24
39389000,-92.86
39398000,-92.15
39407000,-94.04
39416000,-93.04
39425000,-89.51
39434000,-92.15
39443000,-93.34
39452000,-92.86
39461000,-91.82
39470000,-92.96
39479000,-91.27
39488000,-93.73
39497000,-94.04
39506000,-93.43
39515000,-92.86
39524000,-93.04
39533000,-92.24
39542000,-92.86
39551000,-93.53
39560000,-94.25
39569000,-93.43
39578000,-92.86
39587000,-93.24
39596000,-91.53
39605000,-91.22
39614000,-92.89
39623000,-93.27
39632000,-92.89
39641000,-94.73
39650000,-93.08
39659000,-92.27
39668000,-91.94
39677000,-93.17
39686000,-91.37
39695000,-91.37
39704000,-91
39713000,-92.89
39722000,-93.46
39731000,-92.89
39740000,-90.18
39749000,-94.28
39758000,-92.89
39767000,-93.37
39776000,-92.62
39785000,-92.1
39794000,-93.76
39803000,-92.44
39812000,-92.89
39821000,-93.46
39830000,-92.8
39839000,-92.53
39848000,-93.37
39857000,-93.46
39866000,-93.27
39875000,-90.71
39884000,-93.46
39893000,-92.18
39902000,-92.27
39911000,-92.62
39920000,-92.62
39929000,-91.07
39938000,-91.94
39947000,-93.07
39956000,-93.27
39965000,-91.77
39974000,-90.92
39983000,-84.16
39992000,-67.59
40001000,-53.91
40010000,-77
40019000,-88.58
40028000,-92.98
40037000,-92.18
40046000,-91.94
40055000,-93.07
40064000,-93.86
40073000,-91.07
40082000,-93.07
40091000,-92.71
40100000,-93.07
40109000,-92.01
40118000,-92.36
40127000,-93.76
40136000,-93.36
40145000,-92.89
40154000,-93.76
40163000,-93.65
40172000,-93.46
40181000,-93.65
40190000,-92.53
40199000,-93.59
40208000,-93.3
40217000,-92.21
40226000,-92.74
40235000,-92.65
40244000,-93.69
40253000,-91.4
40262000,-92.74
40271000,-93.79
40280000,-94
40289000,-93.89
40298000,-92.83
40307000,-91.48
40316000,-92.05
40325000,-93.69
40334000,-92.56
40343000,-94.53
40352000,-92.47
40361000,-92.92
40370000,-94.1
40379000,-93.59
40388000,-93.59
40397000,-93.69
40406000,-91.48
40415000,-94.64
40424000,-94.53
40433000,-92.56
40442000,-92.56
40451000,-92.56
40460000,-94.21
40469000,-93.69
40478000,-92.39
40487000,-93.2
40496000,-92.3
40505000,-92.83
40514000,-93.99
40523000,-93.1
40532000,-93.68
40541000,-94.64
40550000,-91.96
40559000,-92.3
40568000,-93.2
40577000,-93.1
40586000,-91.25
40595000,-93.1
40604000,-92.74
40613000,-93.39
40622000,-91.25
40631000,-93.3
40640000,-93.68
40649000,-91.4
40658000,-93.49
40667000,-93.01
40676000,-92.55
40685000,-93.01
40694000,-94.53
40703000,-92.39
40712000,-93.3
40721000,-93.79
40730000,-93.68
40739000,-93.29
40748000,-93.59
40757000,-92.74
40766000,-92.21
40775000,-92.55
40784000,-90.32
40793000,-93.62
40802000,-94.03
40811000,-92.32
40820000,-92.49
40829000,-92.23
40838000,-91.57
40847000,-92.57
40856000,-93.62
40865000,-90.96
40874000,-92.76
40883000,-94.24
40892000,-92.67
40901000,-93.72
40910000,-93.13
40919000,-92.67
40928000,-94.35
40937000,-93.23
40946000,-93.61
40955000,-94.13
40964000,-93.52
40973000,-93.23
40982000,-93.92
40991000,-93.82
41000000,-93.42
41009000,-91.65
41018000,-93.03
41027000,-93.42
41036000,-93.52
41045000,-91.65
41054000,-91.89
41063000,-92.48
41072000,-93.82
41081000,-93.42
41090000,-90.01
41099000,-93.32
41108000,-91.81
41117000,-92.67
41126000,-94.13
41135000,-92.4
41144000,-93.61
41153000,-94.03
41162000,-93.61
41171000,-94.24
41180000,-94.13
41189000,-93.61
41198000,-93.42
41207000,-94.03
41216000,-94.46
41225000,-93.82
41234000,-93.13
41243000,-93.22
41252000,-93.61
41261000,-93.61
41270000,-94.24
41279000,-93.32
41288000,-91.8
41297000,-93.32
41306000,-93.32
41315000,-91.57
41324000,-93.51
41333000,-92.84
41342000,-92.84
41351000,-93.22
41360000,-93.92
41369000,-92.67
41378000,-93.92
41387000,-92.73
41396000,-93.01
41405000,-93.29
41414000,-94.09
41423000,-93.1
41432000,-93.01
41441000,-94.09
41450000,-93.1
41459000,-93.1
41468000,-93.68
41477000,-93.39
41486000,-93.19
41495000,-92.04
41504000,-92.73
41513000,-94.74
41522000,-93.88
41531000,-94.2
41540000,-92.82
41549000,-92.29
41558000,-93.98
41567000,-93.58
41576000,-94.3
41585000,-92.73
41594000,-92.73
41603000,-93.88
41612000,-91.79
41621000,-94.41
41630000,-93.78
41639000,-92.38
41648000,-91.87
41657000,-93.58
41666000,-93.29
41675000,-93.01
41684000,-93.88
41693000,-93.68
41702000,-93.88
41711000,-94.09
41720000,-94.2
41729000,-93.48
41738000,-93.29
41747000,-93.48
41756000,-94.09
41765000,-93.48
41774000,-93.19
41783000,-92.82
41792000,-93.78
41801000,-93.29
41810000,-92.91
41819000,-93.29
41828000,-94.09
41837000,-93.09
41846000,-92.82
41855000,-90.66
41864000,-93.48
41873000,-94.09
41882000,-93.19
41891000,-92.82
41900000,-93.67
41909000,-93.38
41918000,-93.67
41927000,-93.98
41936000,-93.29
41945000,-93.67
41954000,-92.91
41963000,-92.38
41972000,-93.06
41981000,-94.27
41990000,-93.35
41999000,-93.25
42008000,-94.37
42017000,-93.64
42026000,-91.83
42035000,-92.51
42044000,-92.34
42053000,-94.05
42062000,-92.51
42071000,-93.06
42080000,-92.25
42089000,-93.54
42098000,-93.74
42107000,-91.35
42116000,-93.74
42125000,-92.87
42134000,-94.26
42143000,-93.06
42152000,-93.06
42161000,-92.97
42170000,-92.51
42179000,-92.51
42188000,-91.83
42197000,-92.87
42206000,-94.16
42215000,-93.35
42224000,-93.74
42233000,-92.34
42242000,-93.06
42251000,-94.05
42260000,-93.44
42269000,-93.25
42278000,-92.09
42287000,-94.16
42296000,-93.74
42305000,-93.84
42314000,-93.74
42323000,-95.17
42332000,-93.25
42341000,-92.51
42350000,-93.84
42359000,-94.05
42368000,-93.15
42377000,-92.51
42386000,-92.69
42395000,-93.44
42404000,-92.69
42413000,-93.74
42422000,-93.74
42431000,-92.78
42440000,-93.05
42449000,-92.87
42458000,-93.15
42467000,-92.97
42476000,-92.87
42485000,-94.26
42494000,-93.05
42503000,-93.25
42512000,-94.48
42521000,-93.25
42530000,-93.15
42539000,-94.16
42548000,-92.59
42557000,-93.28
42566000,-93.87
42575000,-92.28
42584000,-91.38
42593000,-93.67
42602000,-91.08
42611000,-93.18
42620000,-93.77
42629000,-93.98
42638000,-91.86
42647000,-93.67
42656000,-91.86
42665000,-92.54
42674000,-93.87
42683000,-93.57
42692000,-91.78
42701000,-92.37
42710000,-94.51
42719000,-93.47
42728000,-93.08
42737000,-93.47
42746000,-94.96
42755000,-93.38
42764000,-92.54
42773000,-93.38
42782000,-94.85
42791000,-91.86
42800000,-91.78
42809000,-92.54
42818000,-94.29
42827000,-93.28
42836000,-92.72
42845000,-93.47
42854000,-92.45
42863000,-92.19
42872000,-93.47
42881000,-92.45
42890000,-93.67
42899000,-92.54
42908000,-93.97
42917000,-91.08
42926000,-93.28
42935000,-92.37
42944000,-93.77
42953000,-93.08
42962000,-91.95
42971000,-93.66
42980000,-91.86
42989000,-93.47
42998000,-92.45
43007000,-91.94
43016000,-92.37
43025000,-90.86
43034000,-90.3
43043000,-90.44
43052000,-92.02
43061000,-91.86
43070000,-92.19
43079000,-92.19
43088000,-91.86
43097000,-92.28
43106000,-93.37
43115000,-93.66
43124000,-92.62
43133000,-94.51
43142000,-92.19
43151000,-92.72
43160000,-93.4
43169000,-93.21
43178000,-93.8
43187000,-92.65
43196000,-91.96
43205000,-91.96
43214000,-93.11
43223000,-92.65
43232000,-92.83
43241000,-93.6
43250000,-93.4
43259000,-91.96
43268000,-92.65
43277000,-93.4
43286000,-93.11
43295000,-90.72
43304000,-93.7
43313000,-93.8
43322000,-92.83
43331000,-92.3
43340000,-92.21
43349000,-93.01
43358000,-92.55
43367000,-93.11
43376000,-93.7
43385000,-93.01
43394000,-93.11
43403000,-91.09
43412000,-94.33
43421000,-94.01
43430000,-92.83
43439000,-91.16
43448000,-92.92
43457000,-91.95
43466000,-93.4
43475000,-91.71
43484000,-92.3
43493000,-92.65
43502000,-94.01
43511000,-93.01
43520000,-93.4
43529000,-92.83
43538000,-94.44
43547000,-92.65
43556000,-93.01
43565000,-93.01
43574000,-93.4
43583000,-93.8
43592000,-93.21
43601000,-92.65
43610000,-94.33
43619000,-92.65
43628000,-93.4
43637000,-90.94
43646000,-92.55
43655000,-92.3
43664000,-93.01
43673000,-93.7
43682000,-93.8
43691000,-93.8
43700000,-93.4
43709000,-94.11
43718000,-92.55
43727000,-93.5
43736000,-92.82
43745000,-93.33
43754000,-94.25
43763000,-93.43
43772000,-94.15
43781000,-91.98
43790000,-92.86
43799000,-93.63
43808000,-92.86
43817000,-92.33
43826000,-92.68
43835000,-93.24
43844000,-94.04
43853000,-91.98
43862000,-92.5
43871000,-92.77
43880000,-93.62
43889000,-92.95
43898000,-91.5
43907000,-93.62
43916000,-94.25
43925000,-93.24
43934000,-94.04
43943000,-92.24
43952000,-91.9
43961000,-92.15
43970000,-95.53
43979000,-92.86
43988000,-91.82
43997000,-91.98
44006000,-92.86
44015000,-93.73
44024000,-92.86
44033000,-91.82
44042000,-91.82
44051000,-92.95
44060000,-92.86
44069000,-93.93
44078000,-93.43
44087000,-92.77
44096000,-93.43
44105000,-92.86
44114000,-93.93
44123000,-92.95
44132000,-92.49
44141000,-93.43
44150000,-93.23
44159000,-93.23
44168000,-93.04
44177000,-91.9
44186000,-92.68
44195000,-92.77
44204000,-92.85
44213000,-93.43
44222000,-94.25
44231000,-93.23
44240000,-92.95
44249000,-92.4
44258000,-93.43
44267000,-92.15
44276000,-90.97
44285000,-92.49
44294000,-93.93
44303000,-93.82
44312000,-93.62
44321000,-94.25
44330000,-94.35
44339000,-93.93
44348000,-93.04
44357000,-94.35
44366000,-91.19
44375000,-93.62
44384000,-91.81
44393000,-93.43
44402000,-93.82
44411000,-93.52
44420000,-93.43
44429000,-94.69
44438000,-93.43
44447000,-94.25
44456000,-91.9
44465000,-92.58
44474000,-93.82
44483000,-92.32
44492000,-93.13
44501000,-93.62
44510000,-93.04
44519000,-94.14
44528000,-92.85
44537000,-93.52
44546000,-92.85
44555000,-91.98
44564000,-92.32
44573000,-91.81
44582000,-93.04
44591000,-94.03
44600000,-93.04
44609000,-93.23
44618000,-92.4
44627000,-91.73
44636000,-93.04
44645000,-93.04
44654000,-94.57
44663000,-93.93
44672000,-93.62
44681000,-92.67
44690000,-93.62
44699000,-93.42
44708000,-91.81
44717000,-93.23
44726000,-93.33
44735000,-93.72
44744000,-93.23
44753000,-93.62
44762000,-93.42
44771000,-92.49
44780000,-93.52
44789000,-93.93
44798000,-92.32
44807000,-91.41
44816000,-93.42
44825000,-90.01
44834000,-91.57
44843000,-92.67
44852000,-92.06
44861000,-93.62
44870000,-91.65
44879000,-92.14
44888000,-91.41
44897000,-92.67
44906000,-90.01
44915000,-93.52
44924000,-92.49
44933000,-92.43
44942000,-92.1
44951000,-93.26
44960000,-93.07
44969000,-92.98
44978000,-89.41
44987000,-80.47
44996000,-56.56
45005000,-62.23
45014000,-83.38
45023000,-90.49
45032000,-92.61
45041000,-92.7
45050000,-92.7
45059000,-93.36
45068000,-92.88
45077000,-94.06
45086000,-93.26
45095000,-91.84
45104000,-92.18
45113000,-94.6
45122000,-92.79
45131000,-93.26
45140000,-92.17
45149000,-91.68
45158000,-92.88
45167000,-93.16
45176000,-93.65
45185000,-92.79
45194000,-92.61
45203000,-92.98
45212000,-92.43
45221000,-93.85
45230000,-93.96
45239000,-93.45
45248000,-92.88
45257000,-92.61
45266000,-94.27
45275000,-91.93
45284000,-91.76
45293000,-92.79
45302000,-89.65
45311000,-91.76
45320000,-93.75
45329000,-92.52
45338000,-94.71
45347000,-92.61
45356000,-93.85
45365000,-92.88
45374000,-91.21
45383000,-93.55
45392000,-91.68
45401000,-92.79
45410000,-92.98
45419000,-92.88
45428000,-93.06
45437000,-93.95
45446000,-93.85
45455000,-93.26
45464000,-92.7
45473000,-94.17
45482000,-93.95
45491000,-93.16
45500000,-93.85
45509000,-93.85
45518000,-92.67
45527000,-93.42
45536000,-93.72
45545000,-93.92
45554000,-91.97
45563000,-94.46
45572000,-93.51
45581000,-91.49
45590000,-92.57
45599000,-92.84
45608000,-93.22
45617000,-93.22
45626000,-91.8
45635000,-92.94
45644000,-92.75
45653000,-93.03
45662000,-93.22
45671000,-92.31
45680000,-91.97
45689000,-91.97
45698000,-92.48
45707000,-93.22
45716000,-91.03
45725000,-92.31
45734000,-93.72
45743000,-94.02
45752000,-93.61
45761000,-92.67
45770000,-92.06
45779000,-93.12
45788000,-93.81
45797000,-93.42
45806000,-91.56
45815000,-93.92
45824000,-94.79
45833000,-93.22
45842000,-94.02
45851000,-92.14
45860000,-92.94
45869000,-93.92
45878000,-91.97
45887000,-93.51
45896000,-92.66
45905000,-92.48
45914000,-91.97
45923000,-90.73
45932000,-92.31
45941000,-93.51
45950000,-92.48
45959000,-92.84
45968000,-91.89
45977000,-93.41
45986000,-93.51
45995000,-93.22
46004000,-92.84
46013000,-93.12
46022000,-92.66
46031000,-92.84
46040000,-91.72
46049000,-93.41
46058000,-93.51
46067000,-93.22
46076000,-93.81
46085000,-92.66
46094000,-92.57
46103000,-92.97
46112000,-94.05
46121000,-92.7
46130000,-92.6
46139000,-93.06
46148000,-92.87
46157000,-94.71
46166000,-93.35
46175000,-92.6
46184000,-93.64
46193000,-91.92
46202000,-93.84
46211000,-92.7
46220000,-93.74
46229000,-93.06
46238000,-93.64
46247000,-92.87
46256000,-94.16
46265000,-92.51
46274000,-93.64
46283000,-93.25
46292000,-94.49
46301000,-93.54
46310000,-92.51
46319000,-92.97
46328000,-91.83
46337000,-92.42
46346000,-94.37
46355000,-93.64
46364000,-92.42
46373000,-91.67
46382000,-93.06
46391000,-93.25
46400000,-93.06
46409000,-92.87
46418000,-93.84
46427000,-91.2
46436000,-94.93
46445000,-93.64
46454000,-93.06
46463000,-94.7
46472000,-92.42
46481000,-92.69
46490000,-93.84
46499000,-94.05
46508000,-91.67
46517000,-93.35
46526000,-93.74
46535000,-92.34
46544000,-94.16
46553000,-94.48
46562000,-94.05
46571000,-92.42
46580000,-94.16
46589000,-91.92
46598000,-92.42
46607000,-92
46616000,-92
46625000,-92.78
46634000,-94.26
46643000,-93.44
46652000,-93.64
46661000,-93.44
46670000,-93.64
46679000,-92.69
46688000,-92.69
46697000,-93.44
46706000,-93.12
46715000,-92.75
46724000,-93.91
46733000,-93.6
46742000,-92.75
46751000,-94.23
46760000,-93.8
46769000,-92.75
46778000,-92.75
46787000,-94.45
46796000,-92.56
46805000,-93.02
46814000,-93.41
46823000,-93.02
46832000,-93.02
46841000,-93.41
46850000,-91.71
46859000,-93.6
46868000,-92.3
46877000,-92.83
46886000,-93.21
46895000,-93.5
46904000,-92.22
46913000,-93.02
46922000,-92.38
46931000,-93.71
46940000,-93.21
46949000,-91.96
46958000,-93.21
46967000,-93.41
46976000,-92.56
46985000,-92.93
46994000,-91.32
47003000,-92.38
47012000,-92.83
47021000,-91.47
47030000,-93.6
47039000,-93.21
47048000,-93.5
47057000,-92.47
47066000,-94.12
47075000,-92.3
47084000,-92.13
47093000,-93.6
47102000,-92.13
47111000,-89.6
47120000,-93.6
47129000,-93.02
47138000,-92.21
47147000,-93.31
47156000,-91.88
47165000,-92.47
47174000,-93.02
47183000,-93.91
47192000,-94.01
47201000,-91.39
47210000,-93.4
47219000,-93.6
47228000,-93.21
47237000,-94.66
47246000,-92.74
47255000,-93.4
47264000,-92.3
47273000,-92.93
47282000,-92.93
47291000,-93.37
47300000,-92.52
47309000,-91.6
47318000,-94.52
47327000,-93.98
47336000,-94.86
47345000,-93.37
47354000,-93.67
47363000,-92.62
47372000,-93.67
47381000,-92.01
47390000,-93.77
47399000,-92.8
47408000,-92.01
47417000,-93.98
47426000,-92.62
47435000,-92.43
47444000,-92.8
47453000,-93.87
47462000,-94.08
47471000,-93.87
47480000,-92.71
47489000,-93.87
47498000,-93.37
47507000,-92.09
47516000,-93.76
47525000,-93.37
47534000,-94.19
47543000,-93.76
47552000,-93.87
47561000,-92.98
47570000,-93.56
47579000,-92.71
47588000,-93.37
47597000,-91.92
47606000,-93.87
47615000,-92.98
47624000,-93.98
47633000,-93.46
47642000,-92.26
47651000,-92.98
47660000,-93.08
47669000,-92.98
47678000,-93.76
47687000,-92.52
47696000,-93.76
47705000,-93.46
47714000,-91.06
47723000,-91.28
47732000,-92.7
47741000,-91.92
47750000,-94.86
47759000,-93.56
47768000,-93.46
47777000,-93.56
47786000,-93.76
47795000,-92.98
47804000,-92.98
47813000,-92.89
47822000,-91.43
47831000,-93.56
47840000,-93.67
47849000,-93.76
47858000,-92.7
47867000,-91.75
47876000,-93.24
47885000,-92.15
47894000,-92.5
47903000,-94.92
47912000,-94.04
47921000,-92.5
47930000,-93.53
47939000,-93.43
47948000,-93.04
47957000,-91.91
47966000,-91.98
47975000,-94.47
47984000,-93.53
47993000,-92.68
48002000,-93.83
48011000,-92.86
48020000,-91.98
48029000,-93.73
48038000,-94.25
48047000,-94.25
48056000,-93.04
48065000,-93.43
48074000,-93.93
48083000,-93.24
48092000,-92.86
48101000,-93.24
48110000,-93.93
48119000,-93.24
48128000,-94.69
48137000,-92.68
48146000,-92.49
48155000,-94.04
48164000,-93.43
48173000,-92.58
48182000,-93.93
48191000,-93.83
48200000,-94.04
48209000,-93.14
48218000,-92.77
48227000,-93.23
48236000,-92.15
48245000,-94.35
48254000,-93.04
48263000,-91.98
48272000,-93.43
48281000,-93.23
48290000,-93.62
48299000,-92.95
48308000,-93.23
48317000,-93.23
48326000,-94.25
48335000,-91.98
48344000,-93.62
48353000,-91.81
48362000,-93.62
48371000,-92.15
48380000,-94.57
48389000,-92.95
48398000,-94.92
48407000,-93.43
48416000,-94.04
48425000,-93.43
48434000,-93.04
48443000,-92.85
48452000,-91.98
48461000,-92.85
48470000,-92.95
48479000,-92.61
48488000,-93.55
48497000,-93.97
48506000,-92
48515000,-93.66
48524000,-93.17
48533000,-93.55
48542000,-93.17
48551000,-93.76
48560000,-92.42
48569000,-93.07
48578000,-94.29
48587000,-92.88
48596000,-93.46
48605000,-93.76
48614000,-94.18
48623000,-92.61
48632000,-93.55
48641000,-92.42
48650000,-94.62
48659000,-93.26
48668000,-93.46
48677000,-93.97
48686000,-92.51
48695000,-92.97
48704000,-92.42
48713000,-92.26
48722000,-92.42
48731000,-92.17
48740000,-92.7
48749000,-93.75
48758000,-92.78
48767000,-93.55
48776000,-92.88
48785000,-92.7
48794000,-93.97
48803000,-92.78
48812000,-94.07
48821000,-93.86
48830000,-92.61
48839000,-92.7
48848000,-91.58
48857000,-94.18
48866000,-93.45
48875000,-93.45
48884000,-92.78
48893000,-93.45
48902000,-92.08
48911000,-94.4
48920000,-93.66
48929000,-91.66
48938000,-92.17
48947000,-92.08
48956000,-92.97
48965000,-93.55
48974000,-91.5
48983000,-94.62
48992000,-92.78
49001000,-92.97
49010000,-93.66
49019000,-93.06
49028000,-93.55
49037000,-93.55
49046000,-94.18
49055000,-93.36
49064000,-93.79
49073000,-92.73
49082000,-93
49091000,-94.65
49100000,-94.65
49109000,-93
49118000,-93.49
49127000,-93.19
49136000,-92.54
49145000,-93.39
49154000,-93.79
49163000,-93.19
49172000,-94.21
49181000,-93.1
49190000,-94.88
49199000,-93.29
49208000,-92.81
49217000,-93.19
49226000,-94
49235000,-93.78
49244000,-91.86
49253000,-93.19
49262000,-93
49271000,-93.58
49280000,-93.58
49289000,-92.73
49298000,-91.94
49307000,-93.69
49316000,-91.94
49325000,-93.1
49334000,-91.94
49343000,-94.21
49352000,-93.39
49361000,-94
49370000,-91.94
49379000,-91.23
49388000,-92.81
49397000,-91.86
49406000,-94.31
49415000,-93
49424000,-92.28
49433000,-93.99
49442000,-93
49451000,-93.48
49460000,-93.78
49469000,-93.69
49478000,-93
49487000,-93.19
49496000,-93.29
49505000,-92.36
49514000,-93.39
49523000,-93
49532000,-92.81
49541000,-92.45
49550000,-93.39
49559000,-92.64
49568000,-95.36
49577000,-94.2
49586000,-92.72
49595000,-93.48
49604000,-92.11
49613000,-94.1
49622000,-93.78
49631000,-94.2
49640000,-93.58
49649000,-92.11
49658000,-94.1
49667000,-94.65
49676000,-92.81
49685000,-93.65
49694000,-91.9
49703000,-93.65
49712000,-93.35
49721000,-93.96
49730000,-91.42
49739000,-93.65
49748000,-93.25
49757000,-94.5
49766000,-93.54
49775000,-93.75
49784000,-92.69
49793000,-93.65
49802000,-90.96
49811000,-92.78
49820000,-92.96
49829000,-92.78
49838000,-91.82
49847000,-93.35
49856000,-94.61
49865000,-91.99
49874000,-93.16
49883000,-93.54
49892000,-94.84
49901000,-92.87
49910000,-91.11
49919000,-93.54
49928000,-94.61
49937000,-93.35
49946000,-92.6
49955000,-92.78
49964000,-91.66
49973000,-90.67
49982000,-87.42
49991000,-71.11
50000000,-54.82
