Frequency (Hz),Amplitude (dBm)
5000000,-50.72
5009000,-70.35
5018000,-80.58
5027000,-81.71
5036000,-82.08
5045000,-82.63
5054000,-82.47
5063000,-82.63
5072000,-82.47
5081000,-82.31
5090000,-83.5
5099000,-83.22
5108000,-82.39
5117000,-82.47
5126000,-83.67
5135000,-82.15
5144000,-83.58
5153000,-80.32
5162000,-82.8
5171000,-82.23
5180000,-82.31
5189000,-82.47
5198000,-83.4
5207000,-81.63
5216000,-81.07
5225000,-80.58
5234000,-81.14
5243000,-82.55
5252000,-82.8
5261000,-82.8
5270000,-82.63
5279000,-82.39
5288000,-83.67
5297000,-82.89
5306000,-83.31
5315000,-82.8
5324000,-83.22
5333000,-83.49
5342000,-79.95
5351000,-80.44
5360000,-83.49
5369000,-82.4
5378000,-82.98
5387000,-83.67
5396000,-82.48
5405000,-82.32
5414000,-83.49
5423000,-81.79
5432000,-82.72
5441000,-83.59
5450000,-81.87
5459000,-81.37
5468000,-81.65
5477000,-83.67
5486000,-81.87
5495000,-81.94
5504000,-82.56
5513000,-83.4
5522000,-82.4
5531000,-82.56
5540000,-82.72
5549000,-82.48
5558000,-82.89
5567000,-82.98
5576000,-83.76
5585000,-82.32
5594000,-84.14
5603000,-81.79
5612000,-81.65
5621000,-82.56
5630000,-82.89
5639000,-83.76
5648000,-83.14
5657000,-85.15
5666000,-84.04
5675000,-82.32
5684000,-84.43
5693000,-82.17
5702000,-83.94
5711000,-82.48
5720000,-82.09
5729000,-83.23
5738000,-83.58
5747000,-83.31
5756000,-83.14
5765000,-82.64
5774000,-83.23
5783000,-83.86
5792000,-84.04
5801000,-84.43
5810000,-82.09
5819000,-83.58
5828000,-81.16
5837000,-81.87
5846000,-83.05
5855000,-79.57
5864000,-82.56
5873000,-83.05
5882000,-83.4
5891000,-83.14
5900000,-83.23
5909000,-83.05
5918000,-82.72
5927000,-83.58
5936000,-84.33
5945000,-83.58
5954000,-81.05
5963000,-83.95
5972000,-83.39
5981000,-84.43
5990000,-83.21
5999000,-82.62
6008000,-84.14
6017000,-83.3
6026000,-82.47
6035000,-83.49
6044000,-83.49
6053000,-83.14
6062000,-82.96
6071000,-82.62
6080000,-83.58
6089000,-84.43
6098000,-84.04
6107000,-83.66
6116000,-84.24
6125000,-84.04
6134000,-82.79
6143000,-82.46
6152000,-83.85
6161000,-84.24
6170000,-84.63
6179000,-82.54
6188000,-81.63
6197000,-82.3
6206000,-83.95
6215000,-82
6224000,-83.3
6233000,-83.57
6242000,-84.14
6251000,-82.3
6260000,-83.21
6269000,-81.27
6278000,-83.94
6287000,-83.21
6296000,-82.62
6305000,-82.71
6314000,-82.3
6323000,-82.62
6332000,-83.94
6341000,-83.3
6350000,-82.96
6359000,-83.49
6368000,-82.38
6377000,-81.62
6386000,-84.14
6395000,-83.49
6404000,-84.53
6413000,-84.63
6422000,-83.85
6431000,-82.79
6440000,-82.14
6449000,-83.48
6458000,-83.48
6467000,-83.48
6476000,-82.38
6485000,-84.04
6494000,-80.69
6503000,-81.41
6512000,-82.95
6521000,-83.04
6530000,-81.99
6539000,-84.63
6548000,-84.63
6557000,-82.95
6566000,-84.53
6575000,-80.95
6584000,-83.48
6593000,-82.71
6602000,-84.53
6611000,-82.38
6620000,-83.48
6629000,-84.53
6638000,-81.77
6647000,-81.92
6656000,-81.77
6665000,-84.74
6674000,-83.84
6683000,-84.74
6692000,-81.77
6701000,-82.62
6710000,-82.38
6719000,-83.66
6728000,-83.84
6737000,-83.48
6746000,-83.76
6755000,-82.95
6764000,-84.43
6773000,-83.48
6782000,-83.48
6791000,-83.76
6800000,-83.84
6809000,-84.13
6818000,-82.71
6827000,-83.66
6836000,-83.66
6845000,-83.66
6854000,-83.48
6863000,-83.66
6872000,-84.04
6881000,-82.46
6890000,-83.3
6899000,-83.84
6908000,-82.14
6917000,-84.33
6926000,-83.13
6935000,-84.23
6944000,-84.13
6953000,-82.78
6962000,-82.95
6971000,-83.04
6980000,-82.54
6989000,-82.62
6998000,-83.3
7007000,-84.53
7016000,-83.57
7025000,-83.84
7034000,-83.75
7043000,-84.84
7052000,-81.41
7061000,-83.29
7070000,-83.13
7079000,-83.94
7088000,-83.84
7097000,-83.94
7106000,-84.04
7115000,-84.03
7124000,-83.48
7133000,-83.13
7142000,-83.57
7151000,-84.42
7160000,-83.22
7169000,-84.62
7178000,-84.72
7187000,-83.39
7196000,-82.71
7205000,-81.5
7214000,-83.93
7223000,-84.32
7232000,-83.39
7241000,-84.93
7250000,-82.87
7259000,-83.75
7268000,-82.71
7277000,-82.23
7286000,-82.08
7295000,-84.13
7304000,-84.03
7313000,-84.22
7322000,-84.32
7331000,-84.62
7340000,-81.36
7349000,-83.04
7358000,-84.32
7367000,-84.72
7376000,-82.96
7385000,-83.38
7394000,-83.22
7403000,-83.22
7412000,-83.3
7421000,-84.72
7430000,-82.39
7439000,-84.12
7448000,-85.03
7457000,-83.38
7466000,-84.42
7475000,-84.72
7484000,-82.87
7493000,-84.72
7502000,-84.72
7511000,-83.93
7520000,-82.96
7529000,-82.55
7538000,-83.22
7547000,-83.04
7556000,-83.22
7565000,-82.39
7574000,-84.41
7583000,-83.38
7592000,-82.79
7601000,-84.12
7610000,-83.13
7619000,-84.12
7628000,-84.12
7637000,-84.03
7646000,-84.51
7655000,-83.04
7664000,-83.84
7673000,-82.46
7682000,-82.87
7691000,-82.96
7700000,-83.66
7709000,-82.79
7718000,-84.71
7727000,-83.93
7736000,-83.26
7745000,-84.59
7754000,-83.44
7763000,-84.48
7772000,-83.71
7781000,-83.71
7790000,-83.44
7799000,-83.62
7808000,-82.67
7817000,-82.51
7826000,-81.18
7835000,-83.09
7844000,-83.99
7853000,-83.99
7862000,-83.53
7871000,-84.89
7880000,-84.79
7889000,-84.48
7898000,-84.09
7907000,-83.26
7916000,-83.09
7925000,-84.09
7934000,-83.35
7943000,-84.28
7952000,-84.48
7961000,-83.53
7970000,-84.89
7979000,-83.71
7988000,-83.44
7997000,-83.26
8006000,-83.26
8015000,-84.28
8024000,-85.32
8033000,-83.53
8042000,-83.62
8051000,-83.53
8060000,-82.27
8069000,-83.53
8078000,-83.09
8087000,-81.32
8096000,-84.38
8105000,-82.04
8114000,-82.92
8123000,-84.28
8132000,-83.81
8141000,-83.71
8150000,-82.67
8159000,-83.89
8168000,-84.28
8177000,-84.58
8186000,-82.59
8195000,-82.35
8204000,-84.28
8213000,-81.6
8222000,-84.18
8231000,-84.48
8240000,-84.68
8249000,-85.32
8258000,-84.09
8267000,-83.89
8276000,-83.71
8285000,-84.58
8294000,-83.71
8303000,-84.58
8312000,-82.04
8321000,-83.86
8330000,-83.68
8339000,-84.75
8348000,-84.25
8357000,-85.51
8366000,-84.65
8375000,-83.68
8384000,-84.96
8393000,-83.77
8402000,-84.06
8411000,-82.16
8420000,-84.35
8429000,-81.71
8438000,-83.86
8447000,-81.94
8456000,-84.86
8465000,-82.64
8474000,-82.32
8483000,-83.5
8492000,-82.8
8501000,-82.48
8510000,-83.59
8519000,-83.4
8528000,-83.4
8537000,-83.5
8546000,-83.77
8555000,-83.77
8564000,-82.97
8573000,-83.67
8582000,-84.44
8591000,-84.96
8600000,-82.97
8609000,-84.15
8618000,-83.67
8627000,-84.15
8636000,-84.05
8645000,-83.67
8654000,-82.63
8663000,-83.86
8672000,-84.55
8681000,-83.59
8690000,-84.15
8699000,-83.06
8708000,-82.72
8717000,-81.71
8726000,-83.67
8735000,-84.44
8744000,-84.64
8753000,-83.31
8762000,-84.44
8771000,-84.55
8780000,-82.97
8789000,-83.4
8798000,-84.34
8807000,-82.47
8816000,-85.17
8825000,-82.97
8834000,-83.86
8843000,-84.25
8852000,-84.34
8861000,-84.15
8870000,-82.08
8879000,-84.75
8888000,-82.89
8897000,-84.34
8906000,-83.34
8915000,-83.7
8924000,-84.99
8933000,-85.32
8942000,-84.08
8951000,-84.08
8960000,-84.28
8969000,-83.89
8978000,-84.58
8987000,-84.28
8996000,-84.47
9005000,-82.5
9014000,-85.65
9023000,-84.08
9032000,-84.67
9041000,-84.28
9050000,-84.37
9059000,-84.27
9068000,-85.1
9077000,-84.08
9086000,-85.54
9095000,-85.77
9104000,-83.89
9113000,-84.88
9122000,-84.47
9131000,-84.08
9140000,-84.27
9149000,-83.43
9158000,-83.43
9167000,-84.88
9176000,-83.89
9185000,-84.18
9194000,-82.11
9203000,-85.42
9212000,-84.88
9221000,-83.52
9230000,-83.7
9239000,-83.52
9248000,-82.34
9257000,-83.61
9266000,-83.17
9275000,-82.34
9284000,-85.31
9293000,-82.34
9302000,-84.57
9311000,-84.08
9320000,-82.58
9329000,-83.61
9338000,-84.57
9347000,-83.52
9356000,-84.88
9365000,-83.43
9374000,-82.42
9383000,-84.57
9392000,-82.99
9401000,-84.57
9410000,-83.43
9419000,-83.8
9428000,-85.53
9437000,-83.43
9446000,-82.58
9455000,-82.99
9464000,-83.34
9473000,-83.7
9482000,-84.57
9491000,-84.88
9500000,-85.65
9509000,-83.24
9518000,-83.89
9527000,-82.82
9536000,-83.43
9545000,-83.24
9554000,-83.08
9563000,-84.89
9572000,-83.98
9581000,-81.5
9590000,-85.32
9599000,-83.7
9608000,-82.73
9617000,-83.98
9626000,-83.33
9635000,-83.6
9644000,-82.65
9653000,-84.79
9662000,-81.5
9671000,-82.65
9680000,-83.15
9689000,-84.08
9698000,-84.37
9707000,-84.79
9716000,-82.56
9725000,-84.79
9734000,-83.52
9743000,-83.15
9752000,-84.57
9761000,-84.57
9770000,-83.15
9779000,-83.79
9788000,-83.6
9797000,-83.79
9806000,-84.27
9815000,-82.73
9824000,-83.89
9833000,-84.78
9842000,-84.48
9851000,-82.48
9860000,-84.18
9869000,-82.32
9878000,-84.08
9887000,-84.57
9896000,-82.56
9905000,-82.65
9914000,-82.4
9923000,-83.79
9932000,-83.24
9941000,-83.79
9950000,-83.79
9959000,-84.57
9968000,-84.57
9977000,-83.07
9986000,-76.63
9995000,-57.47
10004000,-55.79
10013000,-78.05
10022000,-83.24
10031000,-84.89
10040000,-84.08
10049000,-83.98
10058000,-83.15
10067000,-83.6
10076000,-83.24
10085000,-84.57
10094000,-83.98
10103000,-83.57
10112000,-83.13
10121000,-84.63
10130000,-83.76
10139000,-84.04
10148000,-83.66
10157000,-84.24
10166000,-83.85
10175000,-83.85
10184000,-84.33
10193000,-84.74
10202000,-84.24
10211000,-84.84
10220000,-83.76
10229000,-83.57
10238000,-82.71
10247000,-82.79
10256000,-84.23
10265000,-83.66
10274000,-84.63
10283000,-84.84
10292000,-84.53
10301000,-84.23
10310000,-84.23
10319000,-84.23
10328000,-82.88
10337000,-85.05
10346000,-84.04
10355000,-84.04
10364000,-85.49
10373000,-83.13
10382000,-85.16
10391000,-85.27
10400000,-84.95
10409000,-85.49
10418000,-85.49
10427000,-82.3
10436000,-83.21
10445000,-83.66
10454000,-85.38
10463000,-84.43
10472000,-83.84
10481000,-84.33
10490000,-83.21
10499000,-84.04
10508000,-83.84
10517000,-83.48
10526000,-85.05
10535000,-84.63
10544000,-84.53
10553000,-82.38
10562000,-84.73
10571000,-85.72
10580000,-83.57
10589000,-82.87
10598000,-84.63
10607000,-83.3
10616000,-84.43
10625000,-83.94
10634000,-83.57
10643000,-84.63
10652000,-83.84
10661000,-84.43
10670000,-83.84
10679000,-83.48
10688000,-84.78
10697000,-84.47
10706000,-83.51
10715000,-84.17
10724000,-84.27
10733000,-84.57
10742000,-84.36
10751000,-83.42
10760000,-84.57
10769000,-83.69
10778000,-84.99
10787000,-84.99
10796000,-84.99
10805000,-83.88
10814000,-83.07
10823000,-84.17
10832000,-84.17
10841000,-85.43
10850000,-85.21
10859000,-83.78
10868000,-83.07
10877000,-84.07
10886000,-83.97
10895000,-85.21
10904000,-84.78
10913000,-84.56
10922000,-85.21
10931000,-85.43
10940000,-84.99
10949000,-84.47
10958000,-84.56
10967000,-84.88
10976000,-83.42
10985000,-84.67
10994000,-84.99
11003000,-84.78
11012000,-82.24
11021000,-82.64
11030000,-84.17
11039000,-84.17
11048000,-84.99
11057000,-83.23
11066000,-85.21
11075000,-84.07
11084000,-84.99
11093000,-84.67
11102000,-83.59
11111000,-84.36
11120000,-83.42
11129000,-83.42
11138000,-83.23
11147000,-83.78
11156000,-84.17
11165000,-83.78
11174000,-83.97
11183000,-84.99
11192000,-84.77
11201000,-84.47
11210000,-84.67
11219000,-84.47
11228000,-83.78
11237000,-85.43
11246000,-83.59
11255000,-84.88
11264000,-84.77
11273000,-82.97
11282000,-83.69
11291000,-82.95
11300000,-83.56
11309000,-83.48
11318000,-81.99
11327000,-85.05
11336000,-82.61
11345000,-83.04
11354000,-83.29
11363000,-85.05
11372000,-85.27
11381000,-84.83
11390000,-84.32
11399000,-83.84
11408000,-85.15
11417000,-84.83
11426000,-83.93
11435000,-84.03
11444000,-84.23
11453000,-84.73
11462000,-83.75
11471000,-84.52
11480000,-81.68
11489000,-84.03
11498000,-83.12
11507000,-84.94
11516000,-84.22
11525000,-85.27
11534000,-83.12
11543000,-85.26
11552000,-83.75
11561000,-83.84
11570000,-84.03
11579000,-83.56
11588000,-83.12
11597000,-83.65
11606000,-84.03
11615000,-84.52
11624000,-81.68
11633000,-84.62
11642000,-82.94
11651000,-83.65
11660000,-83.12
11669000,-85.95
11678000,-83.84
11687000,-84.03
11696000,-83.12
11705000,-82.86
11714000,-83.47
11723000,-83.83
11732000,-83.12
11741000,-84.42
11750000,-83.29
11759000,-83.83
11768000,-84.62
11777000,-85.48
11786000,-84.62
11795000,-84.83
11804000,-84.22
11813000,-84.62
11822000,-82.61
11831000,-83.47
11840000,-83.56
11849000,-84.03
11858000,-84.94
11867000,-84.22
11876000,-82.91
11885000,-84.59
11894000,-83.62
11903000,-84.49
11912000,-83.8
11921000,-84.38
11930000,-83.9
11939000,-84.38
11948000,-85.01
11957000,-81.3
11966000,-84.49
11975000,-83.44
11984000,-83.26
11993000,-82.58
12002000,-82.58
12011000,-83.8
12020000,-84.38
12029000,-84
12038000,-84.8
12047000,-82.91
12056000,-84.69
12065000,-83.8
12074000,-83.34
12083000,-84.19
12092000,-84.9
12101000,-84.38
12110000,-82.58
12119000,-83.25
12128000,-84.69
12137000,-83.71
12146000,-84.29
12155000,-84.59
12164000,-84.38
12173000,-83.25
12182000,-85.45
12191000,-84.69
12200000,-82.66
12209000,-85.11
12218000,-83.34
12227000,-84.29
12236000,-84.19
12245000,-84.8
12254000,-85.33
12263000,-83.34
12272000,-85.11
12281000,-85.11
12290000,-83.99
12299000,-84.49
12308000,-84.19
12317000,-84.38
12326000,-84.58
12335000,-82.66
12344000,-83.99
12353000,-84.49
12362000,-82.49
12371000,-83.61
12380000,-84.49
12389000,-84.19
12398000,-84.28
12407000,-82.23
12416000,-84.24
12425000,-83.49
12434000,-84.44
12443000,-83.31
12452000,-83.31
12461000,-84.85
12470000,-83.52
12479000,-85.09
12488000,-84.08
12497000,-84.08
12506000,-84.88
12515000,-84.47
12524000,-86
12533000,-84.47
12542000,-82.03
12551000,-84.27
12560000,-84.27
12569000,-85.09
12578000,-84.78
12587000,-84.47
12596000,-84.27
12605000,-83.47
12614000,-84.72
12623000,-84.61
12632000,-84.41
12641000,-84.02
12650000,-84.31
12659000,-82.77
12668000,-82.13
12677000,-84.82
12686000,-85.36
12695000,-84.22
12704000,-82.36
12713000,-84.41
12722000,-82.86
12731000,-85.71
12740000,-82.77
12749000,-84.31
12758000,-84.21
12767000,-82.12
12776000,-84.51
12785000,-84.12
12794000,-83.37
12803000,-84.51
12812000,-83.37
12821000,-82.36
12830000,-84.21
12839000,-85.36
12848000,-85.14
12857000,-84.21
12866000,-83.28
12875000,-83.83
12884000,-85.14
12893000,-83.11
12902000,-84.02
12911000,-83.64
12920000,-83.28
12929000,-85.14
12938000,-84.02
12947000,-84.93
12956000,-84.31
12965000,-85.47
12974000,-85.03
12983000,-84.12
12992000,-83.92
13001000,-85.14
13010000,-83.46
13019000,-85.03
13028000,-84.93
13037000,-85.7
13046000,-82.77
13055000,-84.02
13064000,-83.82
13073000,-83.37
13082000,-84.82
13091000,-84.41
13100000,-83.64
13109000,-84.51
13118000,-83.46
13127000,-84.61
13136000,-83.46
13145000,-83.46
13154000,-85.03
13163000,-84.61
13172000,-82.76
13181000,-84.71
13190000,-85.03
13199000,-84.41
13208000,-84.4
13217000,-83.82
13226000,-84.21
13235000,-83.55
13244000,-83.11
13253000,-83.82
13262000,-84.82
13271000,-84.02
13280000,-84.02
13289000,-84.61
13298000,-84.21
13307000,-84.4
13316000,-85.03
13325000,-84.4
13334000,-84.11
13343000,-83.11
13352000,-84.11
13361000,-84.21
13370000,-83.73
13379000,-84.02
13388000,-84.51
13397000,-85.25
13406000,-83.19
13415000,-83.73
13424000,-82.44
13433000,-85.47
13442000,-84.21
13451000,-84.61
13460000,-84.71
13469000,-83.73
13478000,-83.73
13487000,-83.11
13496000,-83.64
13505000,-84.82
13514000,-85.03
13523000,-84.21
13532000,-84.61
13541000,-83.19
13550000,-83.46
13559000,-85.03
13568000,-85.13
13577000,-84.4
13586000,-84.6
13595000,-83.55
13604000,-83.46
13613000,-84.51
13622000,-83.92
13631000,-84.4
13640000,-85.25
13649000,-84.01
13658000,-84.51
13667000,-84.01
13676000,-82.76
13685000,-84.82
13694000,-84.4
13703000,-83.73
13712000,-84.3
13721000,-80.04
13730000,-85.25
13739000,-82.76
13748000,-83.02
13757000,-84.51
13766000,-84.21
13775000,-84.81
13784000,-83.82
13793000,-83.36
13802000,-84.11
13811000,-84.6
13820000,-85.13
13829000,-84.4
13838000,-84.6
13847000,-84.01
13856000,-84.51
13865000,-85.25
13874000,-84.4
13883000,-82.76
13892000,-82.85
13901000,-84.4
13910000,-84.92
13919000,-83.1
13928000,-86.06
13937000,-84.11
13946000,-84.11
13955000,-85.7
13964000,-83.73
13973000,-84.5
13982000,-85.35
13991000,-84.5
14000000,-85.02
14009000,-83.36
14018000,-84.6
14027000,-84.11
14036000,-85.47
14045000,-83.63
14054000,-84.2
14063000,-83.27
14072000,-83.27
14081000,-84.11
14090000,-84.92
14099000,-84.4
14108000,-84.71
14117000,-83.36
14126000,-80.28
14135000,-84.01
14144000,-83.63
14153000,-85.24
14162000,-84.81
14171000,-84.5
14180000,-85.02
14189000,-82.43
14198000,-82.04
14207000,-82.27
14216000,-84.6
14225000,-85.13
14234000,-81.52
14243000,-83.73
14252000,-83.57
14261000,-85.4
14270000,-83.85
14279000,-84.14
14288000,-83.39
14297000,-84.75
14306000,-83.04
14315000,-84.33
14324000,-84.14
14333000,-82.95
14342000,-83.12
14351000,-83.66
14360000,-84.54
14369000,-83.57
14378000,-83.12
14387000,-83.12
14396000,-83.75
14405000,-85.07
14414000,-82.86
14423000,-83.57
14432000,-84.96
14441000,-85.63
14450000,-82.29
14459000,-84.33
14468000,-85.4
14477000,-85.4
14486000,-84.54
14495000,-85.29
14504000,-83.75
14513000,-82.95
14522000,-83.2
14531000,-84.44
14540000,-82.78
14549000,-81.98
14558000,-84.64
14567000,-85.06
14576000,-83.39
14585000,-82.61
14594000,-83.75
14603000,-84.75
14612000,-83.94
14621000,-82.61
14630000,-84.53
14639000,-84.53
14648000,-81.98
14657000,-84.53
14666000,-83.75
14675000,-84.53
14684000,-84.53
14693000,-83.29
14702000,-85.51
14711000,-84.53
14720000,-83.56
14729000,-84.33
14738000,-84.53
14747000,-84.53
14756000,-84.64
14765000,-85.51
14774000,-85.4
14783000,-84.53
14792000,-84.85
14801000,-86.11
14810000,-83.2
14819000,-83.85
14828000,-83.75
14837000,-84.14
14846000,-83.23
14855000,-84.88
14864000,-82.55
14873000,-85.21
14882000,-83.42
14891000,-85.54
14900000,-83.78
14909000,-84.36
14918000,-83.06
14927000,-84.67
14936000,-84.56
14945000,-84.77
14954000,-84.47
14963000,-84.17
14972000,-83.88
14981000,-82.64
14990000,-73.16
14999000,-51.74
15008000,-68.71
15017000,-80.75
15026000,-84.17
15035000,-84.17
15044000,-85.43
15053000,-84.77
15062000,-83.78
15071000,-84.07
15080000,-84.07
15089000,-84.07
15098000,-84.99
15107000,-85.89
15116000,-84.99
15125000,-83.42
15134000,-83.06
15143000,-84.56
15152000,-84.36
15161000,-84.56
15170000,-83.59
15179000,-85.21
15188000,-84.16
15197000,-83.59
15206000,-85.2
15215000,-84.36
15224000,-84.46
15233000,-85.2
15242000,-83.41
15251000,-84.46
15260000,-84.77
15269000,-84.98
15278000,-84.16
15287000,-85.09
15296000,-85.2
15305000,-82.39
15314000,-83.5
15323000,-84.07
15332000,-83.06
15341000,-82.55
15350000,-84.46
15359000,-84.16
15368000,-84.26
15377000,-83.97
15386000,-81.48
15395000,-84.77
15404000,-84.36
15413000,-85.42
15422000,-84.98
15431000,-84.33
15440000,-84.63
15449000,-82.44
15458000,-83.74
15467000,-85.06
15476000,-84.13
15485000,-84.74
15494000,-84.33
15503000,-84.53
15512000,-84.95
15521000,-85.06
15530000,-83.94
15539000,-83.65
15548000,-85.86
15557000,-84.13
15566000,-84.23
15575000,-83.38
15584000,-84.74
15593000,-83.94
15602000,-84.53
15611000,-83.94
15620000,-83.28
15629000,-84.53
15638000,-84.53
15647000,-84.32
15656000,-83.74
15665000,-83.56
15674000,-84.63
15683000,-84.03
15692000,-85.28
15701000,-83.74
15710000,-84.32
15719000,-84.53
15728000,-86.23
15737000,-84.53
15746000,-84.23
15755000,-83.65
15764000,-84.95
15773000,-84.74
15782000,-84.53
15791000,-83.74
15800000,-83.19
15809000,-84.43
15818000,-83.38
15827000,-83.47
15836000,-85.74
15845000,-83.11
15854000,-85.5
15863000,-84.53
15872000,-84.95
15881000,-83.93
15890000,-84.23
15899000,-84.43
15908000,-84.13
15917000,-84.32
15926000,-83.47
15935000,-84.13
15944000,-85.27
15953000,-85.17
15962000,-84.52
15971000,-83.19
15980000,-84.84
15989000,-85.17
15998000,-84.13
16007000,-85.27
16016000,-83.55
16025000,-84.59
16034000,-84.59
16043000,-84.8
16052000,-81.58
16061000,-83.53
16070000,-82.42
16079000,-85.23
16088000,-85.11
16097000,-84.19
16106000,-84.49
16115000,-83.99
16124000,-84.8
16133000,-85.23
16142000,-84.28
16151000,-84.38
16160000,-85.33
16169000,-84.8
16178000,-84.28
16187000,-83.44
16196000,-84.09
16205000,-84.8
16214000,-84.8
16223000,-85.01
16232000,-85.68
16241000,-82.33
16250000,-84.69
16259000,-84.09
16268000,-84.28
16277000,-83.44
16286000,-86.04
16295000,-85.33
16304000,-83.44
16313000,-84.28
16322000,-85.23
16331000,-83.08
16340000,-83.44
16349000,-83.61
16358000,-84.09
16367000,-83.99
16376000,-85.8
16385000,-83.99
16394000,-83.08
16403000,-83.08
16412000,-83.61
16421000,-85.33
16430000,-84.58
16439000,-84.9
16448000,-85.91
16457000,-85.33
16466000,-85.01
16475000,-84.58
16484000,-85.33
16493000,-83.99
16502000,-84.18
16511000,-83.8
16520000,-84.38
16529000,-84.69
16538000,-84.69
16547000,-85
16556000,-84.38
16565000,-85.56
16574000,-84.58
16583000,-85.22
16592000,-85
16601000,-82.74
16610000,-85.33
16619000,-84.42
16628000,-84.73
16637000,-84.73
16646000,-84.32
16655000,-83.73
16664000,-83.28
16673000,-84.52
16682000,-83.55
16691000,-84.32
16700000,-84.02
16709000,-84.02
16718000,-83.93
16727000,-84.94
16736000,-83.46
16745000,-85.38
16754000,-85.27
16763000,-83.19
16772000,-83.64
16781000,-82.6
16790000,-84.02
16799000,-84.73
16808000,-83.19
16817000,-84.22
16826000,-83.19
16835000,-84.52
16844000,-84.12
16853000,-84.52
16862000,-83.73
16871000,-84.83
16880000,-83.83
16889000,-83.27
16898000,-83.46
16907000,-84.73
16916000,-83.02
16925000,-84.73
16934000,-83.55
16943000,-82.93
16952000,-85.5
16961000,-84.73
16970000,-83.83
16979000,-83.46
16988000,-83.64
16997000,-84.31
17006000,-83.73
17015000,-84.73
17024000,-84.83
17033000,-84.52
17042000,-84.12
17051000,-83.73
17060000,-82.5
17069000,-85.04
17078000,-83.73
17087000,-83.92
17096000,-82.84
17105000,-84.83
17114000,-85.04
17123000,-85.38
17132000,-83.18
17141000,-84.73
17150000,-83.92
17159000,-84.62
17168000,-84.94
17177000,-82.93
17186000,-83.46
17195000,-84.31
17204000,-83.76
17213000,-83.49
17222000,-85.07
17231000,-84.45
17240000,-83.95
17249000,-84.54
17258000,-83.86
17267000,-84.34
17276000,-85.52
17285000,-83.21
17294000,-85.19
17303000,-83.95
17312000,-84.54
17321000,-83.95
17330000,-85.52
17339000,-83.95
17348000,-85.19
17357000,-84.34
17366000,-84.15
17375000,-84.54
17384000,-84.34
17393000,-85.29
17402000,-84.97
17411000,-83.57
17420000,-83.95
17429000,-83.12
17438000,-83.95
17447000,-84.75
17456000,-84.86
17465000,-85.41
17474000,-83.76
17483000,-83.95
17492000,-83.95
17501000,-83.95
17510000,-82.96
17519000,-83.95
17528000,-84.24
17537000,-84.86
17546000,-81.76
17555000,-84.05
17564000,-82.87
17573000,-84.34
17582000,-82.37
17591000,-83.57
17600000,-84.15
17609000,-84.54
17618000,-83.76
17627000,-84.75
17636000,-84.24
17645000,-85.07
17654000,-83.95
17663000,-84.86
17672000,-85.19
17681000,-83.95
17690000,-83.39
17699000,-83.67
17708000,-84.14
17717000,-85.41
17726000,-84.54
17735000,-82.13
17744000,-84.34
17753000,-83.95
17762000,-84.44
17771000,-83.85
17780000,-84.14
17789000,-85.87
17798000,-84.34
17807000,-82.95
17816000,-85.07
17825000,-84.96
17834000,-84.14
17843000,-84.86
17852000,-84.96
17861000,-83.75
17870000,-85.07
17879000,-83.12
17888000,-83.95
17897000,-84.34
17906000,-83.48
17915000,-85.18
17924000,-83.85
17933000,-83.85
17942000,-84.44
17951000,-84.44
17960000,-84.86
17969000,-84.75
17978000,-85.18
17987000,-83.57
17996000,-83.85
18005000,-84.04
18014000,-83.21
18023000,-83.75
18032000,-85.18
18041000,-84.86
18050000,-83.75
18059000,-84.44
18068000,-82.05
18077000,-84.54
18086000,-84.04
18095000,-83.04
18104000,-83.95
18113000,-85.4
18122000,-82.21
18131000,-83.95
18140000,-84.96
18149000,-85.29
18158000,-84.14
18167000,-83.39
18176000,-84.85
18185000,-84.54
18194000,-85.18
18203000,-84.85
18212000,-83.39
18221000,-84.33
18230000,-84.64
18239000,-84.33
18248000,-84.24
18257000,-82.86
18266000,-84.54
18275000,-82.95
18284000,-83.48
18293000,-84.96
18302000,-83.75
18311000,-84.14
18320000,-83.12
18329000,-84.96
18338000,-84.54
18347000,-83.75
18356000,-83.29
18365000,-81.75
18374000,-83.2
18383000,-84.85
18392000,-85.84
18401000,-84.2
18410000,-84.72
18419000,-83.91
18428000,-84.72
18437000,-84.72
18446000,-84.3
18455000,-83.91
18464000,-83.26
18473000,-83.53
18482000,-83.91
18491000,-83.91
18500000,-83.72
18509000,-85.15
18518000,-84.3
18527000,-83.63
18536000,-85.15
18545000,-85.25
18554000,-85.15
18563000,-85.03
18572000,-82.75
18581000,-84.11
18590000,-85.83
18599000,-83.82
18608000,-83.72
18617000,-83.91
18626000,-84.5
18635000,-83.91
18644000,-85.6
18653000,-85.15
18662000,-83.53
18671000,-83.53
18680000,-83.26
18689000,-83.72
18698000,-82.41
18707000,-85.37
18716000,-84.61
18725000,-84.71
18734000,-84.3
18743000,-84.2
18752000,-85.48
18761000,-83.72
18770000,-84.4
18779000,-83.17
18788000,-84.71
18797000,-85.15
18806000,-84.71
18815000,-82.66
18824000,-84.3
18833000,-84.71
18842000,-83.91
18851000,-83.91
18860000,-84.3
18869000,-84.61
18878000,-84.5
18887000,-84.71
18896000,-83.44
18905000,-84.4
18914000,-84.4
18923000,-85.36
18932000,-83
18941000,-83.53
18950000,-84.01
18959000,-84.1
18968000,-84.5
18977000,-85.96
18986000,-85.17
18995000,-83.94
19004000,-84.33
19013000,-85.06
19022000,-84.53
19031000,-83.56
19040000,-85.17
19049000,-84.33
19058000,-84.95
19067000,-84.85
19076000,-82.2
19085000,-83.38
19094000,-85.17
19103000,-82.94
19112000,-83.74
19121000,-83.84
19130000,-84.04
19139000,-84.95
19148000,-83.38
19157000,-84.23
19166000,-85.28
19175000,-84.74
19184000,-85.28
19193000,-84.85
19202000,-83.74
19211000,-85.39
19220000,-83.84
19229000,-85.62
19238000,-84.13
19247000,-84.53
19256000,-85.17
19265000,-85.17
19274000,-83.84
19283000,-85.39
19292000,-85.17
19301000,-85.28
19310000,-83.56
19319000,-84.95
19328000,-83.74
19337000,-85.17
19346000,-83.65
19355000,-82.04
19364000,-83.11
19373000,-85.98
19382000,-84.95
19391000,-84.23
19400000,-84.74
19409000,-84.95
19418000,-83.47
19427000,-84.63
19436000,-83.94
19445000,-83.94
19454000,-83.2
19463000,-83.28
19472000,-82.85
19481000,-83.84
19490000,-84.23
19499000,-84.03
19508000,-84.03
19517000,-84.74
19526000,-83.47
19535000,-83.74
19544000,-82.68
19553000,-84.74
19562000,-85.28
19571000,-85.06
19580000,-84.43
19589000,-84.74
19598000,-83.56
19607000,-84.84
19616000,-83.19
19625000,-84.95
19634000,-83.19
19643000,-85.39
19652000,-83.03
19661000,-84.03
19670000,-84.32
19679000,-84.53
19688000,-84.13
19697000,-84.74
19706000,-85.17
19715000,-85.39
19724000,-84.52
19733000,-84.13
19742000,-83.84
19751000,-83.84
19760000,-84.63
19769000,-83.74
19778000,-83.19
19787000,-83.19
19796000,-82.35
19805000,-84.52
19814000,-85.39
19823000,-83.65
19832000,-83.65
19841000,-83.47
19850000,-83.84
19859000,-84.22
19868000,-84.95
19877000,-84.32
19886000,-84.95
19895000,-84.74
19904000,-86.48
19913000,-84.22
19922000,-84.52
19931000,-84.63
19940000,-83.38
19949000,-84.52
19958000,-85.17
19967000,-82.85
19976000,-84.13
19985000,-80.08
19994000,-60.43
20003000,-54.83
20012000,-76.82
20021000,-80.71
20030000,-83.1
20039000,-82.77
20048000,-83.74
20057000,-83.55
20066000,-83.46
20075000,-84.95
20084000,-83.74
20093000,-82.35
20102000,-84.13
20111000,-84.73
20120000,-84.22
20129000,-84.52
20138000,-84.42
20147000,-84.52
20156000,-83.83
20165000,-85.05
20174000,-84.94
20183000,-84.32
20192000,-83.74
20201000,-84.52
20210000,-82.11
20219000,-84.22
20228000,-83.74
20237000,-82.77
20246000,-85.05
20255000,-84.84
20264000,-83.55
20273000,-83.1
20282000,-85.16
20291000,-83.37
20300000,-84.63
20309000,-84.84
20318000,-84.22
20327000,-84.94
20336000,-84.94
20345000,-85.05
20354000,-83.55
20363000,-83.55
20372000,-85.61
20381000,-84.32
20390000,-85.61
20399000,-82.84
20408000,-83.19
20417000,-84.52
20426000,-85.16
20435000,-83.19
20444000,-84.52
20453000,-83.19
20462000,-85.38
20471000,-83.1
20480000,-84.32
20489000,-83.73
20498000,-84.84
20507000,-84.73
20516000,-83.73
20525000,-85.61
20534000,-84.73
20543000,-83.93
20552000,-84.73
20561000,-83.83
20570000,-83.02
20579000,-84.42
20588000,-84.52
20597000,-83.93
20606000,-84.84
20615000,-84.12
20624000,-84.31
20633000,-85.05
20642000,-85.27
20651000,-84.12
20660000,-84.02
20669000,-83.64
20678000,-84.94
20687000,-82.19
20696000,-85.05
20705000,-84.02
20714000,-84.02
20723000,-84.22
20732000,-83.93
20741000,-85.16
20750000,-85.38
20759000,-84.42
20768000,-84.94
20777000,-84.73
20786000,-84.31
20795000,-83.18
20804000,-83.93
20813000,-84.12
20822000,-83.18
20831000,-84.31
20840000,-84.94
20849000,-84.12
20858000,-84.83
20867000,-83.92
20876000,-83.55
20885000,-84.83
20894000,-84.73
20903000,-85.38
20912000,-81.73
20921000,-83.73
20930000,-83.64
20939000,-84.52
20948000,-84.31
20957000,-86.34
20966000,-84.52
20975000,-85.61
20984000,-83.83
20993000,-83.73
21002000,-84.62
21011000,-85.38
21020000,-84.94
21029000,-85.16
21038000,-85.38
21047000,-85.26
21056000,-85.49
21065000,-84.62
21074000,-83.92
21083000,-83.64
21092000,-84.73
21101000,-84.62
21110000,-84.31
21119000,-84.51
21128000,-84.51
21137000,-84.21
21146000,-83.54
21155000,-82.34
21164000,-82.84
21173000,-84.73
21182000,-82.03
21191000,-84.94
21200000,-84.83
21209000,-85.61
21218000,-84.51
21227000,-84.31
21236000,-84.42
21245000,-85.61
21254000,-84.42
21263000,-82.03
21272000,-84.31
21281000,-83.82
21290000,-84.62
21299000,-84.51
21308000,-84.21
21317000,-85.04
21326000,-84.62
21335000,-85.26
21344000,-84.51
21353000,-83.45
21362000,-84.28
21371000,-84.69
21380000,-84.9
21389000,-84.18
21398000,-85.35
21407000,-84.48
21416000,-84.08
21425000,-84.48
21434000,-84.28
21443000,-82.47
21452000,-85.01
21461000,-82.98
21470000,-84.48
21479000,-84.69
21488000,-82.56
21497000,-85.81
21506000,-84.18
21515000,-84.48
21524000,-84.8
21533000,-84.08
21542000,-85.7
21551000,-83.42
21560000,-84.08
21569000,-84.69
21578000,-83.99
21587000,-84.48
21596000,-83.69
21605000,-84.28
21614000,-85.46
21623000,-83.51
21632000,-85.46
21641000,-84.48
21650000,-84.28
21659000,-84.08
21668000,-83.33
21677000,-84.48
21686000,-83.69
21695000,-84.38
21704000,-84.08
21713000,-85.46
21722000,-83.61
21731000,-84.9
21740000,-83.89
21749000,-84.8
21758000,-85.01
21767000,-84.69
21776000,-83.51
21785000,-82.63
21794000,-83.89
21803000,-84.58
21812000,-83.89
21821000,-83.89
21830000,-82.8
21839000,-85.12
21848000,-83.89
21857000,-84.9
21866000,-84.18
21875000,-81.92
21884000,-83.51
21893000,-83.33
21902000,-84.27
21911000,-85.12
21920000,-83.69
21929000,-84.9
21938000,-83.14
21947000,-83.23
21956000,-84.76
21965000,-83.57
21974000,-84.05
21983000,-84.45
21992000,-83.48
22001000,-84.55
22010000,-84.05
22019000,-84.35
22028000,-84.76
22037000,-82.86
22046000,-84.66
22055000,-84.87
22064000,-85.31
22073000,-84.87
22082000,-84.44
22091000,-83.85
22100000,-83.3
22109000,-85.31
22118000,-83.3
22127000,-83.66
22136000,-85.9
22145000,-84.87
22154000,-85.09
22163000,-84.44
22172000,-83.66
22181000,-82.69
22190000,-84.05
22199000,-84.44
22208000,-82.6
22217000,-84.14
22226000,-83.95
22235000,-85.09
22244000,-84.24
22253000,-84.05
22262000,-84.44
22271000,-82.43
22280000,-84.35
22289000,-85.77
22298000,-83.57
22307000,-84.24
22316000,-83.66
22325000,-84.76
22334000,-85.09
22343000,-83.38
22352000,-83.3
22361000,-84.65
22370000,-84.05
22379000,-83.2
22388000,-85.42
22397000,-83.66
22406000,-83.11
22415000,-84.87
22424000,-84.04
22433000,-83.85
22442000,-84.24
22451000,-83.11
22460000,-84.44
22469000,-84.24
22478000,-85.09
22487000,-84.86
22496000,-83.85
22505000,-84.14
22514000,-84.65
22523000,-83.29
22532000,-83.66
22541000,-84.5
22550000,-85.96
22559000,-85.15
22568000,-84.2
22577000,-83.72
22586000,-83.72
22595000,-84.3
22604000,-83.17
22613000,-84.1
22622000,-84.61
22631000,-85.25
22640000,-83.08
22649000,-84.5
22658000,-85.37
22667000,-83.91
22676000,-84.71
22685000,-85.37
22694000,-85.14
22703000,-83.63
22712000,-84.82
22721000,-85.25
22730000,-85.25
22739000,-83.08
22748000,-84.01
22757000,-83.72
22766000,-82.66
22775000,-84.92
22784000,-84.92
22793000,-85.59
22802000,-85.25
22811000,-85.14
22820000,-84.71
22829000,-83.63
22838000,-85.36
22847000,-83.91
22856000,-82.41
22865000,-83.53
22874000,-84.2
22883000,-84.1
22892000,-85.48
22901000,-84.71
22910000,-84.71
22919000,-83.35
22928000,-85.59
22937000,-83.63
22946000,-84.71
22955000,-84.3
22964000,-84.71
22973000,-84.1
22982000,-82.82
22991000,-85.59
23000000,-84.5
23009000,-83.71
23018000,-83.91
23027000,-85.25
23036000,-83.91
23045000,-85.72
23054000,-83.81
23063000,-85.72
23072000,-83
23081000,-84.71
23090000,-84.4
23099000,-84.92
23108000,-84.92
23117000,-84.71
23126000,-85.03
23135000,-85.48
23144000,-85.11
23153000,-82.54
23162000,-81.68
23171000,-83.97
23180000,-84.68
23189000,-85.22
23198000,-84.17
23207000,-84.17
23216000,-84.17
23225000,-84.07
23234000,-84.89
23243000,-85.56
23252000,-84.89
23261000,-85
23270000,-85.8
23279000,-82.88
23288000,-84.89
23297000,-84.07
23306000,-83.22
23315000,-83.5
23324000,-84.07
23333000,-85.21
23342000,-84.07
23351000,-84.89
23360000,-84.26
23369000,-84.57
23378000,-83.41
23387000,-84.07
23396000,-83.87
23405000,-85.11
23414000,-85.44
23423000,-83.97
23432000,-85.33
23441000,-83.49
23450000,-83.87
23459000,-84.46
23468000,-83.97
23477000,-82.14
23486000,-84.16
23495000,-83.41
23504000,-83.97
23513000,-84.46
23522000,-84.26
23531000,-82.96
23540000,-85.68
23549000,-84.89
23558000,-84.99
23567000,-83.68
23576000,-85.11
23585000,-85.44
23594000,-85.11
23603000,-84.89
23612000,-85.11
23621000,-84.46
23630000,-83.97
23639000,-83.32
23648000,-84.26
23657000,-85.44
23666000,-84.07
23675000,-84.46
23684000,-83.97
23693000,-84.89
23702000,-84.07
23711000,-84.07
23720000,-84.13
23729000,-84.43
23738000,-84.85
23747000,-84.23
23756000,-83.94
23765000,-84.75
23774000,-85.41
23783000,-85.07
23792000,-84.54
23801000,-83.46
23810000,-84.54
23819000,-84.85
23828000,-84.33
23837000,-82.75
23846000,-83.84
23855000,-83.84
23864000,-85.41
23873000,-82.51
23882000,-84.85
23891000,-83.56
23900000,-84.03
23909000,-85.29
23918000,-84.03
23927000,-84.85
23936000,-82.93
23945000,-84.03
23954000,-84.64
23963000,-84.03
23972000,-85.88
23981000,-84.03
23990000,-85.52
23999000,-85.18
24008000,-82.59
24017000,-84.43
24026000,-83.94
24035000,-84.43
24044000,-85.07
24053000,-83.56
24062000,-84.75
24071000,-85.41
24080000,-84.96
24089000,-84.64
24098000,-84.75
24107000,-84.33
24116000,-83.37
24125000,-84.43
24134000,-85.07
24143000,-85.52
24152000,-84.96
24161000,-84.23
24170000,-85.07
24179000,-84.03
24188000,-83.55
24197000,-85.64
24206000,-83.28
24215000,-84.33
24224000,-85.52
24233000,-84.43
24242000,-82.34
24251000,-85.29
24260000,-85.52
24269000,-84.64
24278000,-84.64
24287000,-85.18
24296000,-83.46
24305000,-84.96
24314000,-84.13
24323000,-83.84
24332000,-83.64
24341000,-83.28
24350000,-84.96
24359000,-84.96
24368000,-84.03
24377000,-83.28
24386000,-84.53
24395000,-84.64
24404000,-83.74
24413000,-83.74
24422000,-84.64
24431000,-83.28
24440000,-84.85
24449000,-84.13
24458000,-84.43
24467000,-84.85
24476000,-85.07
24485000,-85.07
24494000,-85.07
24503000,-83.37
24512000,-84.85
24521000,-85.64
24530000,-85.76
24539000,-85.07
24548000,-84.12
24557000,-82.67
24566000,-85.76
24575000,-84.42
24584000,-85.17
24593000,-83.74
24602000,-83.64
24611000,-84.33
24620000,-84.33
24629000,-85.07
24638000,-84.12
24647000,-83.64
24656000,-83.09
24665000,-83.55
24674000,-84.22
24683000,-84.85
24692000,-84.03
24701000,-84.64
24710000,-84.22
24719000,-84.95
24728000,-84.64
24737000,-85.17
24746000,-84.42
24755000,-84.63
24764000,-84.85
24773000,-82.92
24782000,-86.38
24791000,-84.85
24800000,-84.33
24809000,-83
24818000,-84.03
24827000,-82.84
24836000,-84.53
24845000,-83.83
24854000,-85.29
24863000,-85.52
24872000,-85.07
24881000,-84.95
24890000,-85.07
24899000,-83.28
24908000,-84.15
24917000,-84.15
24926000,-84.77
24935000,-83.86
24944000,-83.48
24953000,-83.86
24962000,-84.98
24971000,-84.98
24980000,-83.58
24989000,-75.35
24998000,-52.58
25007000,-65.32
25016000,-81.02
25025000,-83.48
25034000,-84.77
25043000,-83.31
25052000,-85.32
25061000,-83.39
25070000,-84.35
25079000,-84.05
25088000,-84.15
25097000,-84.15
25106000,-85.67
25115000,-83.3
25124000,-84.87
25133000,-83.86
25142000,-84.35
25151000,-84.25
25160000,-84.05
25169000,-85.09
25178000,-83.67
25187000,-84.66
25196000,-82.77
25205000,-83.21
25214000,-86.28
25223000,-83.12
25232000,-83.12
25241000,-85.54
25250000,-83.67
25259000,-83.21
25268000,-85.67
25277000,-84.56
25286000,-85.09
25295000,-84.45
25304000,-84.15
25313000,-85.67
25322000,-85.31
25331000,-85.2
25340000,-83.86
25349000,-84.66
25358000,-84.66
25367000,-82.95
25376000,-84.05
25385000,-84.05
25394000,-83.86
25403000,-84.05
25412000,-84.66
25421000,-84.05
25430000,-85.78
25439000,-83.12
25448000,-83.86
25457000,-84.35
25466000,-84.15
25475000,-81.81
25484000,-83.76
25493000,-85.28
25502000,-85.75
25511000,-83.45
25520000,-82.57
25529000,-86
25538000,-83.83
25547000,-85.63
25556000,-84.02
25565000,-84.73
25574000,-84.84
25583000,-83.73
25592000,-83.08
25601000,-85.28
25610000,-84.42
25619000,-85.51
25628000,-85.99
25637000,-85.06
25646000,-83.73
25655000,-83.73
25664000,-84.21
25673000,-84.63
25682000,-84.73
25691000,-81.93
25700000,-84.63
25709000,-83.73
25718000,-85.63
25727000,-84.21
25736000,-81.86
25745000,-83.82
25754000,-84.84
25763000,-83.92
25772000,-84.02
25781000,-82.25
25790000,-83.92
25799000,-84.84
25808000,-84.41
25817000,-84.94
25826000,-83.44
25835000,-82.25
25844000,-83.82
25853000,-83.17
25862000,-83.82
25871000,-83.27
25880000,-84.94
25889000,-84.41
25898000,-84.52
25907000,-85.16
25916000,-85.51
25925000,-84.84
25934000,-84.02
25943000,-83.92
25952000,-83.92
25961000,-84.21
25970000,-85.16
25979000,-86.12
25988000,-83.36
25997000,-84.62
26006000,-84.41
26015000,-85.06
26024000,-83.44
26033000,-85.28
26042000,-84.94
26051000,-83.17
26060000,-85.06
26069000,-84.21
26078000,-84.84
26087000,-84.41
26096000,-83.27
26105000,-84.94
26114000,-85.06
26123000,-82.82
26132000,-85.99
26141000,-83.63
26150000,-84.21
26159000,-84.52
26168000,-85.16
26177000,-83.44
26186000,-84.94
26195000,-85.06
26204000,-84.83
26213000,-83.63
26222000,-84.83
26231000,-83.82
26240000,-84.83
26249000,-83.72
26258000,-83.44
26267000,-83.82
26276000,-84.11
26285000,-84.73
26294000,-85.5
26303000,-82.74
26312000,-84.01
26321000,-83.35
26330000,-84.52
26339000,-85.5
26348000,-84.62
26357000,-81.77
26366000,-85.05
26375000,-84.31
26384000,-85.5
26393000,-83.08
26402000,-83.63
26411000,-83.54
26420000,-83.62
26429000,-84.73
26438000,-83.35
26447000,-85.16
26456000,-84.62
26465000,-84.01
26474000,-84.83
26483000,-84.62
26492000,-83.72
26501000,-84.52
26510000,-84.31
26519000,-84.62
26528000,-84.62
26537000,-83.92
26546000,-85.05
26555000,-84.41
26564000,-84.62
26573000,-84.21
26582000,-85.05
26591000,-84.41
26600000,-83.44
26609000,-85.5
26618000,-84.11
26627000,-83.91
26636000,-84.01
26645000,-85.05
26654000,-84.21
26663000,-82.91
26672000,-84.97
26681000,-83.65
26690000,-84.04
26699000,-84.04
26708000,-83.19
26717000,-84.34
26726000,-81.36
26735000,-84.14
26744000,-85.3
26753000,-83.85
26762000,-83.94
26771000,-83.29
26780000,-84.23
26789000,-84.86
26798000,-84.44
26807000,-85.3
26816000,-83.47
26825000,-84.65
26834000,-84.65
26843000,-85.19
26852000,-83.65
26861000,-83.11
26870000,-85.65
26879000,-85.19
26888000,-82.68
26897000,-83.85
26906000,-83.85
26915000,-84.65
26924000,-83.56
26933000,-82.43
26942000,-83.65
26951000,-84.44
26960000,-83.75
26969000,-83.85
26978000,-84.86
26987000,-84.75
26996000,-83.94
27005000,-85.3
27014000,-84.23
27023000,-84.65
27032000,-85.08
27041000,-84.65
27050000,-84.86
27059000,-85.3
27068000,-84.23
27077000,-84.34
27086000,-85.89
27095000,-84.23
27104000,-84.86
27113000,-86.14
27122000,-84.14
27131000,-84.23
27140000,-83.46
27149000,-83.75
27158000,-84.86
27167000,-83.75
27176000,-84.65
27185000,-84.13
27194000,-84.75
27203000,-84.86
27212000,-84.43
27221000,-83.56
27230000,-84.96
27239000,-82.85
27248000,-85.53
27257000,-85.24
27266000,-85.24
27275000,-84.17
27284000,-84.9
27293000,-85.35
27302000,-83.5
27311000,-84.9
27320000,-84.8
27329000,-83.13
27338000,-84.69
27347000,-85.02
27356000,-85.59
27365000,-85.24
27374000,-85.59
27383000,-83.88
27392000,-84.37
27401000,-84.58
27410000,-83.68
27419000,-85.83
27428000,-84.37
27437000,-83.97
27446000,-85.01
27455000,-85.01
27464000,-83.78
27473000,-84.27
27482000,-84.27
27491000,-84.58
27500000,-83.78
27509000,-83.78
27518000,-82.04
27527000,-85.23
27536000,-84.07
27545000,-84.48
27554000,-85.46
27563000,-84.9
27572000,-82.69
27581000,-85.12
27590000,-85.01
27599000,-84.69
27608000,-84.58
27617000,-85.23
27626000,-83.4
27635000,-84.9
27644000,-85.01
27653000,-84.37
27662000,-84.17
27671000,-83.22
27680000,-84.79
27689000,-82.53
27698000,-83.97
27707000,-83.97
27716000,-85.46
27725000,-84.79
27734000,-84.17
27743000,-82.69
27752000,-83.4
27761000,-84.17
27770000,-83.78
27779000,-85.01
27788000,-84.79
27797000,-85.95
27806000,-85.35
27815000,-85.46
27824000,-85.58
27833000,-85.23
27842000,-83.28
27851000,-82.42
27860000,-85.41
27869000,-84.64
27878000,-84.33
27887000,-84.96
27896000,-84.64
27905000,-84.23
27914000,-83.74
27923000,-83.64
27932000,-84.43
27941000,-83.84
27950000,-84.43
27959000,-85.07
27968000,-83.18
27977000,-84.53
27986000,-84.23
27995000,-83.84
28004000,-84.96
28013000,-85.29
28022000,-85.07
28031000,-83.84
28040000,-84.64
28049000,-86.13
28058000,-83.55
28067000,-84.03
28076000,-82.42
28085000,-83.74
28094000,-83.64
28103000,-85.07
28112000,-84.13
28121000,-82.84
28130000,-84.43
28139000,-85.41
28148000,-84.53
28157000,-83.84
28166000,-85.29
28175000,-83.64
28184000,-84.13
28193000,-84.53
28202000,-83.46
28211000,-80.62
28220000,-84.33
28229000,-84.96
28238000,-84.03
28247000,-84.03
28256000,-85.88
28265000,-83.46
28274000,-84.43
28283000,-84.33
28292000,-84.33
28301000,-84.03
28310000,-85.07
28319000,-83.83
28328000,-84.03
28337000,-85.07
28346000,-83.55
28355000,-84.53
28364000,-84.85
28373000,-84.42
28382000,-83.45
28391000,-84.85
28400000,-84.85
28409000,-84.74
28418000,-83.45
28427000,-84.64
28436000,-84.47
28445000,-82.69
28454000,-85.34
28463000,-84.68
28472000,-84.57
28481000,-84.36
28490000,-85.34
28499000,-84.06
28508000,-83.97
28517000,-84.36
28526000,-84.27
28535000,-85.01
28544000,-84.36
28553000,-84.89
28562000,-84.26
28571000,-83.49
28580000,-84.57
28589000,-83.77
28598000,-84.78
28607000,-85.23
28616000,-83.96
28625000,-84.57
28634000,-85.01
28643000,-84.47
28652000,-84.36
28661000,-83.77
28670000,-84.47
28679000,-83.58
28688000,-84.78
28697000,-83.39
28706000,-85.23
28715000,-83.96
28724000,-82.19
28733000,-83.49
28742000,-81.72
28751000,-81.72
28760000,-80.29
28769000,-81.8
28778000,-82.27
28787000,-82.19
28796000,-84.47
28805000,-85
28814000,-85.45
28823000,-85.58
28832000,-85.45
28841000,-84.16
28850000,-83.87
28859000,-85.11
28868000,-84.57
28877000,-82.86
28886000,-81.87
28895000,-84.16
28904000,-84.06
28913000,-83.87
28922000,-83.39
28931000,-84.78
28940000,-84.57
28949000,-83.49
28958000,-83.03
28967000,-83.77
28976000,-84.78
28985000,-84.26
28994000,-85.58
29003000,-83.86
29012000,-85
29021000,-83.42
29030000,-85.03
29039000,-84.19
29048000,-84.6
29057000,-85.48
29066000,-84.92
29075000,-85.25
29084000,-83.6
29093000,-83.99
29102000,-83.99
29111000,-85.37
29120000,-85.03
29129000,-83.52
29138000,-84.09
29147000,-84.39
29156000,-84.09
29165000,-84.71
29174000,-84.18
29183000,-86.98
29192000,-82.97
29201000,-84.81
29210000,-84.6
29219000,-85.14
29228000,-84.39
29237000,-84.7
29246000,-83.99
29255000,-85.72
29264000,-85.25
29273000,-84.09
29282000,-84.49
29291000,-83.42
29300000,-82.46
29309000,-85.97
29318000,-84.29
29327000,-85.25
29336000,-84.49
29345000,-84.7
29354000,-84.81
29363000,-84.6
29372000,-85.03
29381000,-85.03
29390000,-83.42
29399000,-85.03
29408000,-83.33
29417000,-85.36
29426000,-85.72
29435000,-83.42
29444000,-85.25
29453000,-83.51
29462000,-83.89
29471000,-85.48
29480000,-84.09
29489000,-84.39
29498000,-82.71
29507000,-86.21
29516000,-84.18
29525000,-84.29
29534000,-84.38
29543000,-85.25
29552000,-83.6
29561000,-83.14
29570000,-84.08
29579000,-83.6
29588000,-83.41
29597000,-86.21
29606000,-83.24
29615000,-82.71
29624000,-84.08
29633000,-85.13
29642000,-85.03
29651000,-84.38
29660000,-84.38
29669000,-84.6
29678000,-85.48
29687000,-84.81
29696000,-83.79
29705000,-85.48
29714000,-84.08
29723000,-84.18
29732000,-85.96
29741000,-83.99
29750000,-84.18
29759000,-84.81
29768000,-85.6
29777000,-83.89
29786000,-82.46
29795000,-84.91
29804000,-83.24
29813000,-85.03
29822000,-84.91
29831000,-84.18
29840000,-85.71
29849000,-84.29
29858000,-85.71
29867000,-84.18
29876000,-83.69
29885000,-85.25
29894000,-85.13
29903000,-85.96
29912000,-84.59
29921000,-83.98
29930000,-83.98
29939000,-84.18
29948000,-83.6
29957000,-84.91
29966000,-83.89
29975000,-83.41
29984000,-81.23
29993000,-63.3
30002000,-53.58
30011000,-77.48
30020000,-83.89
30029000,-84.38
30038000,-84.59
30047000,-85.47
30056000,-84.28
30065000,-84.38
30074000,-83.41
30083000,-84.18
30092000,-85.02
30101000,-82.88
30110000,-84.8
30119000,-85.13
30128000,-83.23
30137000,-84.28
30146000,-83.89
30155000,-84.59
30164000,-82.37
30173000,-82.88
30182000,-83.59
30191000,-84.59
30200000,-81.74
30209000,-85.44
30218000,-83.95
30227000,-84.05
30236000,-84.56
30245000,-84.99
30254000,-83.76
30263000,-84.56
30272000,-82.51
30281000,-83.38
30290000,-85.44
30299000,-84.88
30308000,-84.67
30317000,-83.66
30326000,-83.56
30335000,-86.56
30344000,-82.43
30353000,-84.77
30362000,-83.85
30371000,-84.56
30380000,-83.85
30389000,-83.85
30398000,-85.21
30407000,-84.88
30416000,-84.77
30425000,-83.95
30434000,-83.38
30443000,-85.44
30452000,-83.95
30461000,-83.85
30470000,-85.21
30479000,-84.88
30488000,-85.21
30497000,-84.56
30506000,-84.77
30515000,-84.45
30524000,-84.56
30533000,-85.68
30542000,-83.76
30551000,-83.56
30560000,-85.21
30569000,-84.56
30578000,-85.21
30587000,-85.44
30596000,-83.95
30605000,-84.35
30614000,-85.44
30623000,-84.77
30632000,-84.25
30641000,-84.66
30650000,-84.35
30659000,-84.56
30668000,-84.45
30677000,-85.21
30686000,-84.05
30695000,-85.21
30704000,-83.01
30713000,-84.34
30722000,-84.56
30731000,-85.32
30740000,-84.45
30749000,-83.95
30758000,-84.04
30767000,-85.09
30776000,-84.77
30785000,-84.99
30794000,-84.93
30803000,-83.62
30812000,-83.62
30821000,-84.2
30830000,-85.15
30839000,-85.27
30848000,-85.98
30857000,-85.05
30866000,-84.93
30875000,-83.07
30884000,-84.83
30893000,-84.01
30902000,-84.1
30911000,-84.93
30920000,-83.07
30929000,-84.4
30938000,-85.5
30947000,-85.5
30956000,-85.5
30965000,-84.93
30974000,-83.26
30983000,-84.01
30992000,-84.62
31001000,-84.62
31010000,-85.27
31019000,-84.83
31028000,-84.72
31037000,-82.39
31046000,-84.01
31055000,-84.2
31064000,-85.27
31073000,-85.15
31082000,-84.2
31091000,-84.51
31100000,-84.1
31109000,-83.81
31118000,-85.05
31127000,-84.61
31136000,-85.27
31145000,-83.62
31154000,-86.1
31163000,-84.83
31172000,-84.1
31181000,-83.91
31190000,-81.47
31199000,-84.61
31208000,-83.62
31217000,-83.62
31226000,-84.61
31235000,-84.2
31244000,-82.39
31253000,-84.4
31262000,-85.73
31271000,-84.83
31280000,-84.3
31289000,-85.73
31298000,-84.72
31307000,-85.27
31316000,-83.16
31325000,-85.27
31334000,-85.27
31343000,-85.27
31352000,-83.16
31361000,-83.53
31370000,-85.38
31379000,-85.98
31388000,-84.31
31397000,-85.06
31406000,-82.98
31415000,-84.52
31424000,-84.31
31433000,-83.72
31442000,-84.84
31451000,-85.64
31460000,-85.17
31469000,-84.95
31478000,-84.31
31487000,-84.1
31496000,-85.52
31505000,-84.52
31514000,-84.63
31523000,-81.52
31532000,-85.29
31541000,-83.72
31550000,-84.31
31559000,-85.17
31568000,-86.13
31577000,-84.73
31586000,-83.91
31595000,-84.73
31604000,-85.17
31613000,-84.31
31622000,-84.95
31631000,-85.29
31640000,-84.95
31649000,-84.73
31658000,-84.31
31667000,-85.06
31676000,-84.1
31685000,-84.52
31694000,-85.4
31703000,-83.34
31712000,-84.21
31721000,-83.81
31730000,-82.63
31739000,-84.41
31748000,-84.01
31757000,-84.95
31766000,-84.95
31775000,-83.16
31784000,-85.64
31793000,-85.88
31802000,-84.95
31811000,-85.05
31820000,-84.83
31829000,-84.95
31838000,-84.3
31847000,-84.21
31856000,-86.65
31865000,-84.3
31874000,-83.71
31883000,-85.17
31892000,-85.88
31901000,-82.88
31910000,-84.73
31919000,-84.3
31928000,-84.3
31937000,-83.81
31946000,-84.3
31955000,-85.28
31964000,-84.73
31973000,-83.52
31982000,-84.37
31991000,-85.01
32000000,-82.78
32009000,-83.97
32018000,-83.49
32027000,-85.23
32036000,-83.68
32045000,-83.22
32054000,-83.68
32063000,-83.87
32072000,-83.68
32081000,-84.36
32090000,-84.58
32099000,-85.01
32108000,-84.47
32117000,-83.39
32126000,-83.77
32135000,-84.68
32144000,-83.68
32153000,-84.79
32162000,-85.01
32171000,-86.32
32180000,-84.47
32189000,-85.46
32198000,-84.06
32207000,-84.79
32216000,-84.89
32225000,-85.01
32234000,-83.49
32243000,-85.34
32252000,-84.57
32261000,-85.34
32270000,-84.57
32279000,-84.57
32288000,-85.23
32297000,-83.67
32306000,-84.47
32315000,-85.11
32324000,-85.46
32333000,-83.77
32342000,-85.01
32351000,-85.46
32360000,-84.57
32369000,-84.16
32378000,-85.46
32387000,-84.57
32396000,-84.57
32405000,-84.57
32414000,-84.16
32423000,-84.89
32432000,-84.47
32441000,-85.23
32450000,-83.96
32459000,-83.67
32468000,-84.36
32477000,-85.45
32486000,-83.58
32495000,-84.16
32504000,-84.36
32513000,-84.78
32522000,-83.67
32531000,-85.23
32540000,-83.87
32549000,-83.21
32558000,-84.78
32567000,-85
32576000,-83.67
32585000,-84.36
32594000,-85.82
32603000,-85.94
32612000,-84.36
32621000,-84.89
32630000,-85
32639000,-85.22
32648000,-84.26
32657000,-84.57
32666000,-84.26
32675000,-85.11
32684000,-84.36
32693000,-84.16
32702000,-84.36
32711000,-84.16
32720000,-84.47
32729000,-85.22
32738000,-83.96
32747000,-84.16
32756000,-83.87
32765000,-84.68
32774000,-85.11
32783000,-82.68
32792000,-84.78
32801000,-85.58
32810000,-83.96
32819000,-85
32828000,-83.3
32837000,-85.58
32846000,-84.36
32855000,-84.16
32864000,-84.68
32873000,-84.26
32882000,-84.57
32891000,-84.57
32900000,-84.78
32909000,-84.78
32918000,-84.06
32927000,-83.96
32936000,-85.94
32945000,-84.26
32954000,-85.69
32963000,-84.89
32972000,-85.45
32981000,-82.51
32990000,-83.96
32999000,-83.03
33008000,-83.86
33017000,-83.96
33026000,-84.36
33035000,-85.94
33044000,-84.36
33053000,-84.89
33062000,-85.57
33071000,-83.77
33080000,-83.96
33089000,-85
33098000,-83.57
33107000,-85.93
33116000,-83.39
33125000,-85.93
33134000,-85.81
33143000,-84.36
33152000,-85.69
33161000,-83.77
33170000,-84.85
33179000,-83.93
33188000,-84.75
33197000,-83.35
33206000,-84.85
33215000,-84.75
33224000,-83.64
33233000,-84.32
33242000,-83.54
33251000,-83.64
33260000,-83.73
33269000,-85.42
33278000,-83.73
33287000,-84.97
33296000,-84.32
33305000,-83.93
33314000,-85.42
33323000,-82.99
33332000,-84.97
33341000,-85.19
33350000,-82.57
33359000,-84.12
33368000,-84.75
33377000,-83.54
33386000,-85.66
33395000,-85.07
33404000,-84.97
33413000,-84.85
33422000,-84.12
33431000,-85.9
33440000,-86.03
33449000,-83.73
33458000,-85.07
33467000,-84.97
33476000,-84.97
33485000,-84.53
33494000,-85.3
33503000,-84.85
33512000,-85.42
33521000,-84.43
33530000,-85.54
33539000,-85.19
33548000,-85.42
33557000,-83.93
33566000,-84.85
33575000,-84.75
33584000,-85.19
33593000,-84.32
33602000,-84.32
33611000,-84.74
33620000,-84.32
33629000,-83.45
33638000,-84.74
33647000,-85.3
33656000,-83.26
33665000,-84.53
33674000,-84.74
33683000,-85.41
33692000,-85.19
33701000,-83.54
33710000,-85.3
33719000,-85.41
33728000,-84.12
33737000,-84.85
33746000,-84.96
33755000,-83.73
33764000,-85.62
33773000,-84.82
33782000,-84.5
33791000,-83.7
33800000,-84.09
33809000,-84.82
33818000,-84.09
33827000,-84.29
33836000,-84.71
33845000,-84.5
33854000,-82.28
33863000,-84.29
33872000,-83.05
33881000,-84.29
33890000,-84.93
33899000,-84.5
33908000,-84.71
33917000,-84.82
33926000,-84.71
33935000,-82.87
33944000,-83.7
33953000,-84.93
33962000,-82.87
33971000,-83.32
33980000,-84.5
33989000,-83.7
33998000,-84.29
34007000,-83.32
34016000,-85.27
34025000,-84.08
34034000,-83.79
34043000,-84.6
34052000,-84.6
34061000,-85.5
34070000,-85.38
34079000,-84.5
34088000,-84.6
34097000,-84.19
34106000,-83.6
34115000,-83.89
34124000,-84.82
34133000,-84.5
34142000,-82.87
34151000,-82.7
34160000,-84.08
34169000,-84.71
34178000,-84.71
34187000,-83.5
34196000,-84.71
34205000,-84.5
34214000,-83.41
34223000,-84.29
34232000,-84.39
34241000,-82.95
34250000,-84.6
34259000,-84.93
34268000,-84.6
34277000,-84.71
34286000,-83.69
34295000,-83.5
34304000,-84.19
34313000,-84.29
34322000,-85.15
34331000,-85.38
34340000,-83.5
34349000,-84.53
34358000,-83.53
34367000,-82.64
34376000,-82.9
34385000,-84.32
34394000,-84.22
34403000,-84.53
34412000,-85.77
34421000,-84.22
34430000,-83.17
34439000,-85.53
34448000,-84.84
34457000,-84.53
34466000,-84.74
34475000,-85.89
34484000,-85.18
34493000,-85.18
34502000,-84.96
34511000,-84.53
34520000,-83.72
34529000,-84.63
34538000,-84.53
34547000,-83.82
34556000,-84.42
34565000,-84.74
34574000,-84.53
34583000,-83.53
34592000,-84.31
34601000,-83.07
34610000,-82.81
34619000,-84.42
34628000,-84.63
34637000,-82.89
34646000,-85.53
34655000,-83.82
34664000,-84.11
34673000,-84.22
34682000,-85.64
34691000,-84.22
34700000,-83.34
34709000,-84.96
34718000,-83.34
34727000,-84.96
34736000,-84.01
34745000,-84.11
34754000,-84.63
34763000,-84.63
34772000,-85.06
34781000,-83.62
34790000,-84.84
34799000,-83.44
34808000,-85.41
34817000,-84.31
34826000,-83.53
34835000,-84.21
34844000,-83.53
34853000,-84.52
34862000,-84.31
34871000,-85.64
34880000,-83.82
34889000,-85.18
34898000,-85.4
34907000,-84.73
34916000,-84.01
34925000,-83.53
34934000,-85.06
34943000,-83.72
34952000,-83.72
34961000,-83.53
34970000,-83.53
34979000,-83.34
34988000,-77.79
34997000,-54.1
35006000,-63.6
35015000,-80.63
35024000,-84.31
35033000,-85.17
35042000,-84.31
35051000,-83.34
35060000,-83.16
35069000,-84.52
35078000,-84.31
35087000,-84.73
35096000,-85.29
35105000,-84.95
35114000,-84.63
35123000,-82.47
35132000,-84.21
35141000,-84.73
35150000,-84.31
35159000,-82.98
35168000,-84.31
35177000,-84.31
35186000,-84.31
35195000,-84.41
35204000,-83.52
35213000,-85.4
35222000,-84.73
35231000,-85.53
35240000,-86.13
35249000,-84.84
35258000,-84.11
35267000,-83.44
35276000,-84.63
35285000,-82.89
35294000,-82.63
35303000,-83.62
35312000,-84.21
35321000,-83.62
35330000,-84.73
35339000,-86.01
35348000,-84.73
35357000,-83.52
35366000,-84.21
35375000,-82.63
35384000,-85.76
35393000,-82.81
35402000,-84.73
35411000,-84.84
35420000,-86.01
35429000,-83.52
35438000,-84.95
35447000,-83.34
35456000,-84.95
35465000,-85.4
35474000,-83.25
35483000,-83.91
35492000,-84.1
35501000,-83.52
35510000,-86.13
35519000,-83.52
35528000,-83.91
35537000,-84.92
35546000,-83.49
35555000,-85.14
35564000,-84.7
35573000,-83.3
35582000,-83.22
35591000,-84.7
35600000,-83.88
35609000,-84.38
35618000,-84.49
35627000,-83.3
35636000,-83.03
35645000,-85.73
35654000,-84.49
35663000,-85.49
35672000,-85.02
35681000,-84.7
35690000,-83.97
35699000,-84.49
35708000,-84.18
35717000,-84.27
35726000,-85.37
35735000,-84.49
35744000,-85.14
35753000,-80.33
35762000,-83.3
35771000,-84.49
35780000,-82.1
35789000,-84.49
35798000,-84.59
35807000,-82.85
35816000,-84.27
35825000,-83.21
35834000,-84.18
35843000,-84.92
35852000,-84.48
35861000,-84.07
35870000,-83.78
35879000,-83.58
35888000,-83.88
35897000,-84.92
35906000,-83.88
35915000,-82.85
35924000,-85.37
35933000,-85.25
35942000,-85.14
35951000,-84.8
35960000,-83.49
35969000,-83.3
35978000,-83.87
35987000,-84.38
35996000,-85.73
36005000,-85.73
36014000,-85.37
36023000,-82.77
36032000,-84.48
36041000,-84.07
36050000,-83.87
36059000,-85.02
36068000,-84.59
36077000,-84.27
36086000,-83.49
36095000,-85.14
36104000,-84.59
36113000,-83.87
36122000,-82.71
36131000,-86.13
36140000,-83.61
36149000,-83.81
36158000,-85.05
36167000,-84.62
36176000,-83.9
36185000,-84.2
36194000,-84.3
36203000,-84.1
36212000,-84.1
36221000,-84.51
36230000,-84.1
36239000,-83.9
36248000,-85.39
36257000,-83.24
36266000,-84.62
36275000,-84.1
36284000,-81.66
36293000,-85.63
36302000,-85.28
36311000,-84.1
36320000,-85.16
36329000,-85.05
36338000,-84.72
36347000,-84.3
36356000,-84.62
36365000,-83.9
36374000,-84.41
36383000,-84.1
36392000,-84
36401000,-84.94
36410000,-83.71
36419000,-85.16
36428000,-82.05
36437000,-83.51
36446000,-85.88
36455000,-83.9
36464000,-83.9
36473000,-82.71
36482000,-83.71
36491000,-84.2
36500000,-86.12
36509000,-84.4
36518000,-86.12
36527000,-83.33
36536000,-84.51
36545000,-84.51
36554000,-85.63
36563000,-83.9
36572000,-84.1
36581000,-84.83
36590000,-83.71
36599000,-84.4
36608000,-83.24
36617000,-84.2
36626000,-86.12
36635000,-84.3
36644000,-85.28
36653000,-83.51
36662000,-83.71
36671000,-83.51
36680000,-84.2
36689000,-84.72
36698000,-83.9
36707000,-82.62
36716000,-84
36725000,-86.12
36734000,-84.4
36743000,-84.4
36752000,-84.72
36761000,-83.24
36770000,-85.28
36779000,-84
36788000,-84.09
36797000,-84.61
36806000,-82.96
36815000,-83.9
36824000,-84.2
36833000,-83.7
36842000,-84.09
36851000,-85.87
36860000,-83.33
36869000,-84.09
36878000,-83.9
36887000,-83.9
36896000,-84.61
36905000,-82.8
36914000,-84.94
36923000,-84.09
36932000,-84.2
36941000,-83.51
36950000,-82.71
36959000,-83.99
36968000,-85.16
36977000,-84.29
36986000,-84.4
36995000,-84.29
37004000,-84.51
37013000,-82.96
37022000,-84.94
37031000,-85.39
37040000,-85.87
37049000,-84.51
37058000,-84.94
37067000,-85.04
37076000,-83.8
37085000,-84.51
37094000,-83.9
37103000,-84.4
37112000,-83.32
37121000,-84.72
37130000,-84.29
37139000,-84.61
37148000,-83.7
37157000,-84.5
37166000,-84.94
37175000,-85.39
37184000,-84.82
37193000,-84.61
37202000,-82.28
37211000,-84.4
37220000,-83.8
37229000,-83.51
37238000,-84.2
37247000,-85.75
37256000,-83.32
37265000,-84.2
37274000,-83.23
37283000,-84.2
37292000,-85.04
37301000,-84.02
37310000,-84.12
37319000,-84.97
37328000,-84.75
37337000,-83.35
37346000,-84.43
37355000,-85.19
37364000,-82.57
37373000,-85.54
37382000,-83.63
37391000,-83.54
37400000,-83.93
37409000,-83.93
37418000,-84.75
37427000,-84.75
37436000,-82.9
37445000,-85.07
37454000,-85.07
37463000,-84.85
37472000,-82.73
37481000,-84.97
37490000,-84.97
37499000,-82.9
37508000,-84.12
37517000,-83.54
37526000,-84.53
37535000,-84.32
37544000,-84.96
37553000,-84.74
37562000,-84.64
37571000,-83.92
37580000,-83.83
37589000,-84.96
37598000,-83.73
37607000,-84.12
37616000,-84.32
37625000,-84.74
37634000,-85.18
37643000,-85.18
37652000,-85.41
37661000,-84.12
37670000,-83.92
37679000,-85.41
37688000,-84.64
37697000,-84.96
37706000,-84.32
37715000,-84.74
37724000,-82.64
37733000,-84.96
37742000,-83.83
37751000,-84.22
37760000,-85.77
37769000,-82.82
37778000,-83.63
37787000,-84.22
37796000,-84.96
37805000,-84.12
37814000,-84.85
37823000,-84.42
37832000,-85.07
37841000,-82.99
37850000,-84.02
37859000,-84.22
37868000,-85.41
37877000,-81.76
37886000,-84.08
37895000,-84.71
37904000,-84.29
37913000,-82.44
37922000,-84.6
37931000,-83.23
37940000,-84.5
37949000,-85.04
37958000,-84.71
37967000,-85.38
37976000,-84.82
37985000,-84.29
37994000,-84.5
38003000,-82.7
38012000,-84.19
38021000,-84.5
38030000,-83.79
38039000,-83.6
38048000,-84.5
38057000,-82.95
38066000,-84.93
38075000,-84.5
38084000,-84.29
38093000,-82.87
38102000,-83.69
38111000,-84.29
38120000,-85.62
38129000,-83.89
38138000,-85.38
38147000,-84.29
38156000,-85.03
38165000,-84.6
38174000,-84.5
38183000,-84.5
38192000,-84.5
38201000,-86.63
38210000,-83.79
38219000,-85.26
38228000,-84.81
38237000,-84.5
38246000,-84.93
38255000,-84.28
38264000,-83.89
38273000,-83.89
38282000,-85.62
38291000,-84.71
38300000,-84.19
38309000,-82.11
38318000,-85.15
38327000,-85.5
38336000,-83.69
38345000,-85.86
38354000,-83.89
38363000,-83.14
38372000,-83.31
38381000,-86.11
38390000,-85.38
38399000,-83.31
38408000,-84.71
38417000,-85.38
38426000,-84.08
38435000,-83.69
38444000,-84.93
38453000,-84.08
38462000,-84.19
38471000,-85.15
38480000,-84.74
38489000,-83.92
38498000,-82.56
38507000,-84.11
38516000,-84.31
38525000,-84.63
38534000,-83.72
38543000,-85.29
38552000,-83.82
38561000,-84.01
38570000,-82.98
38579000,-81.76
38588000,-84.01
38597000,-84.31
38606000,-85.29
38615000,-82.89
38624000,-82.98
38633000,-84.22
38642000,-85.64
38651000,-85.41
38660000,-83.72
38669000,-84.31
38678000,-83.72
38687000,-84.31
38696000,-84.42
38705000,-83.91
38714000,-83.82
38723000,-85.41
38732000,-84.96
38741000,-81.98
38750000,-84.73
38759000,-84.84
38768000,-83.07
38777000,-84.84
38786000,-83.44
38795000,-85.4
38804000,-84.42
38813000,-83.91
38822000,-83.53
38831000,-85.89
38840000,-85.89
38849000,-84.31
38858000,-83.07
38867000,-84.01
38876000,-84.73
38885000,-85.4
38894000,-85.17
38903000,-84.63
38912000,-85.64
38921000,-84.73
38930000,-84.73
38939000,-84.95
38948000,-84.11
38957000,-85.4
38966000,-84.31
38975000,-84.95
38984000,-83.07
38993000,-84.11
39002000,-83.52
39011000,-84.31
39020000,-85.4
39029000,-83.34
39038000,-83.25
39047000,-84.95
39056000,-84.21
39065000,-84.31
39074000,-84.28
39083000,-82.6
39092000,-82.43
39101000,-84.49
39110000,-84.7
39119000,-84.07
39128000,-85.03
39137000,-84.7
39146000,-83.31
39155000,-83.31
39164000,-83.13
39173000,-83.03
39182000,-83.78
39191000,-84.38
39200000,-85.26
39209000,-84.49
39218000,-84.92
39227000,-82.6
39236000,-85.73
39245000,-85.26
39254000,-83.13
39263000,-84.49
39272000,-83.78
39281000,-84.49
39290000,-84.49
39299000,-84.18
39308000,-85.37
39317000,-84.28
39326000,-84.7
39335000,-83.88
39344000,-84.18
39353000,-83.59
39362000,-83.13
39371000,-84.07
39380000,-84.28
39389000,-82.86
39398000,-84.49
39407000,-84.07
39416000,-85.14
39425000,-84.28
39434000,-84.7
39443000,-85.37
39452000,-85.85
39461000,-84.7
39470000,-84.27
39479000,-85.49
39488000,-84.27
39497000,-84.92
39506000,-83.88
39515000,-84.49
39524000,-84.07
39533000,-83.49
39542000,-85.02
39551000,-85.37
39560000,-83.49
39569000,-85.02
39578000,-84.92
39587000,-84.07
39596000,-85.25
39605000,-85.49
39614000,-84.7
39623000,-84.7
39632000,-84.49
39641000,-84.07
39650000,-85.25
39659000,-85.08
39668000,-84.86
39677000,-84.01
39686000,-83.43
39695000,-84.86
39704000,-84.86
39713000,-85.19
39722000,-84.42
39731000,-84.96
39740000,-85.08
39749000,-83.43
39758000,-84.21
39767000,-83.91
39776000,-84.12
39785000,-85.79
39794000,-83.43
39803000,-84.32
39812000,-84.86
39821000,-84.64
39830000,-84.11
39839000,-84.11
39848000,-84.63
39857000,-83.43
39866000,-82.71
39875000,-82.88
39884000,-83.62
39893000,-85.08
39902000,-82.04
39911000,-82.29
39920000,-84.96
39929000,-82.54
39938000,-85.19
39947000,-84.85
39956000,-85.3
39965000,-84.01
39974000,-84.85
39983000,-83.06
39992000,-67
40001000,-53.6
40010000,-76.34
40019000,-82.79
40028000,-84.53
40037000,-84.42
40046000,-84.42
40055000,-85.19
40064000,-84.63
40073000,-84.32
40082000,-84.85
40091000,-83.72
40100000,-84.21
40109000,-85.3
40118000,-84.32
40127000,-83.52
40136000,-84.21
40145000,-83.52
40154000,-84.42
40163000,-85.54
40172000,-84.63
40181000,-85.3
40190000,-83.81
40199000,-82.2
40208000,-83.42
40217000,-83.91
40226000,-84.42
40235000,-83.81
40244000,-83.15
40253000,-82.65
40262000,-85.1
40271000,-85.1
40280000,-83.09
40289000,-84.88
40298000,-84.45
40307000,-84.24
40316000,-84.03
40325000,-84.66
40334000,-81.91
40343000,-83.84
40352000,-85.1
40361000,-85.82
40370000,-85.22
40379000,-84.66
40388000,-84.24
40397000,-83.84
40406000,-83.65
40415000,-84.45
40424000,-83.45
40433000,-84.99
40442000,-84.66
40451000,-84.55
40460000,-84.88
40469000,-83.27
40478000,-83.84
40487000,-85.57
40496000,-83.45
40505000,-85.33
40514000,-84.03
40523000,-83.94
40532000,-83.94
40541000,-84.34
40550000,-82.9
40559000,-83.74
40568000,-84.45
40577000,-83.09
40586000,-85.21
40595000,-84.88
40604000,-84.34
40613000,-84.03
40622000,-82.74
40631000,-84.66
40640000,-84.76
40649000,-82.9
40658000,-83.64
40667000,-84.66
40676000,-83.84
40685000,-84.03
40694000,-82.81
40703000,-84.76
40712000,-84.45
40721000,-84.45
40730000,-84.66
40739000,-84.98
40748000,-82.73
40757000,-82.22
40766000,-83.93
40775000,-84.88
40784000,-83.64
40793000,-84.23
40802000,-84.34
40811000,-84.14
40820000,-85.33
40829000,-84.88
40838000,-84.03
40847000,-84.58
40856000,-85.13
40865000,-83.21
40874000,-84.26
40883000,-85.13
40892000,-84.06
40901000,-84.69
40910000,-85.84
40919000,-84.17
40928000,-84.79
40937000,-84.79
40946000,-84.69
40955000,-85.59
40964000,-84.37
40973000,-84.91
40982000,-84.17
40991000,-85.24
41000000,-83.48
41009000,-84.91
41018000,-85.13
41027000,-83.39
41036000,-85.01
41045000,-85.13
41054000,-85.84
41063000,-84.58
41072000,-85.72
41081000,-83.2
41090000,-84.69
41099000,-83.29
41108000,-82.84
41117000,-84.68
41126000,-85.36
41135000,-83.29
41144000,-85.01
41153000,-83.77
41162000,-85.59
41171000,-82.59
41180000,-84.68
41189000,-85.59
41198000,-84.58
41207000,-84.58
41216000,-84.37
41225000,-84.58
41234000,-84.47
41243000,-83.86
41252000,-84.37
41261000,-84.9
41270000,-85.59
41279000,-85.35
41288000,-83.86
41297000,-85.12
41306000,-84.79
41315000,-85.35
41324000,-84.68
41333000,-84.47
41342000,-84.68
41351000,-84.47
41360000,-84.68
41369000,-83.96
41378000,-85.01
41387000,-84.06
41396000,-85.96
41405000,-84.37
41414000,-83.11
41423000,-84.79
41432000,-84.76
41441000,-83.73
41450000,-84.44
41459000,-83.83
41468000,-85.44
41477000,-84.65
41486000,-84.98
41495000,-85.09
41504000,-84.02
41513000,-84.87
41522000,-84.02
41531000,-82.22
41540000,-85.09
41549000,-83.44
41558000,-83.54
41567000,-84.02
41576000,-83.83
41585000,-85.32
41594000,-84.02
41603000,-84.23
41612000,-84.54
41621000,-84.76
41630000,-84.65
41639000,-84.65
41648000,-84.87
41657000,-83.26
41666000,-85.09
41675000,-84.54
41684000,-84.87
41693000,-85.09
41702000,-85.09
41711000,-84.44
41720000,-85.32
41729000,-84.87
41738000,-84.02
41747000,-85.2
41756000,-83.93
41765000,-84.87
41774000,-84.87
41783000,-84.02
41792000,-83.83
41801000,-82.81
41810000,-85.32
41819000,-83.35
41828000,-84.97
41837000,-83.83
41846000,-85.68
41855000,-84.13
41864000,-83.63
41873000,-83.08
41882000,-84.13
41891000,-83.92
41900000,-84.65
41909000,-85.32
41918000,-84.44
41927000,-84.33
41936000,-84.65
41945000,-84.44
41954000,-83.63
41963000,-84.65
41972000,-85.2
41981000,-84.87
41990000,-83.73
41999000,-84.02
42008000,-84.65
42017000,-83.63
42026000,-85.59
42035000,-84.25
42044000,-84.47
42053000,-85.59
42062000,-84.47
42071000,-85.47
42080000,-83.95
42089000,-83.38
42098000,-84.57
42107000,-85.12
42116000,-82.08
42125000,-83.2
42134000,-85.35
42143000,-83.66
42152000,-84.46
42161000,-84.9
42170000,-85
42179000,-85.35
42188000,-83.57
42197000,-83.66
42206000,-84.16
42215000,-83.95
42224000,-84.46
42233000,-84.9
42242000,-84.25
42251000,-84.78
42260000,-84.36
42269000,-83.76
42278000,-84.16
42287000,-85.12
42296000,-84.25
42305000,-83.56
42314000,-83.38
42323000,-82.16
42332000,-85.83
42341000,-82.08
42350000,-85.12
42359000,-83.76
42368000,-84.78
42377000,-84.05
42386000,-84.78
42395000,-84.78
42404000,-85.58
42413000,-82.5
42422000,-83.85
42431000,-84.46
42440000,-85.23
42449000,-84.67
42458000,-83.56
42467000,-84.36
42476000,-84.67
42485000,-85.58
42494000,-84.05
42503000,-84.36
42512000,-84.57
42521000,-85.23
42530000,-85.83
42539000,-84.67
42548000,-85.47
42557000,-84.78
42566000,-84.25
42575000,-84.36
42584000,-82.57
42593000,-83.76
42602000,-83.95
42611000,-84.72
42620000,-85.28
42629000,-84.19
42638000,-83.89
42647000,-83.4
42656000,-85.17
42665000,-83.89
42674000,-84.19
42683000,-83.99
42692000,-84.51
42701000,-83.79
42710000,-84.09
42719000,-84.72
42728000,-85.05
42737000,-84.19
42746000,-84.94
42755000,-84.19
42764000,-83.69
42773000,-82.94
42782000,-84.72
42791000,-85.17
42800000,-84.61
42809000,-83.22
42818000,-84.51
42827000,-84.19
42836000,-84.61
42845000,-85.05
42854000,-84.4
42863000,-85.28
42872000,-86.27
42881000,-84.19
42890000,-85.77
42899000,-83.79
42908000,-86.27
42917000,-83.79
42926000,-83.4
42935000,-85.17
42944000,-84.94
42953000,-84.61
42962000,-84.5
42971000,-85.05
42980000,-85.05
42989000,-84.83
42998000,-82.94
43007000,-83.31
43016000,-82.18
43025000,-82.26
43034000,-81.7
43043000,-81.78
43052000,-81.78
43061000,-83.4
43070000,-83.89
43079000,-83.79
43088000,-85.05
43097000,-83.98
43106000,-83.4
43115000,-84.19
43124000,-83.5
43133000,-82.85
43142000,-84.83
43151000,-84.61
43160000,-84.19
43169000,-84.61
43178000,-85.28
43187000,-83.04
43196000,-84.71
43205000,-84.12
43214000,-84.12
43223000,-83.62
43232000,-82.88
43241000,-84.64
43250000,-84.64
43259000,-85.08
43268000,-83.91
43277000,-84.64
43286000,-84.32
43295000,-84.86
43304000,-84.32
43313000,-84.86
43322000,-85.31
43331000,-85.31
43340000,-85.08
43349000,-83.82
43358000,-84.42
43367000,-84.01
43376000,-84.01
43385000,-83.62
43394000,-83.62
43403000,-83.82
43412000,-84.74
43421000,-84.53
43430000,-84.42
43439000,-86.04
43448000,-83.72
43457000,-84.32
43466000,-84.64
43475000,-84.01
43484000,-84.53
43493000,-83.43
43502000,-84.01
43511000,-85.19
43520000,-85.79
43529000,-84.42
43538000,-85.54
43547000,-82.97
43556000,-84.63
43565000,-85.79
43574000,-83.06
43583000,-84.53
43592000,-85.3
43601000,-84.42
43610000,-82.88
43619000,-84.53
43628000,-84.01
43637000,-84.85
43646000,-83.52
43655000,-84.11
43664000,-85.07
43673000,-85.3
43682000,-83.43
43691000,-83.81
43700000,-86.04
43709000,-84.42
43718000,-82.71
43727000,-84.63
43736000,-84.53
43745000,-83.15
43754000,-85.79
43763000,-84.32
43772000,-83.24
43781000,-83.91
43790000,-84.63
43799000,-83.59
43808000,-84.39
43817000,-83.59
43826000,-84.6
43835000,-83.69
43844000,-84.82
43853000,-84.18
43862000,-83.59
43871000,-84.93
43880000,-85.51
43889000,-82.5
43898000,-84.28
43907000,-85.4
43916000,-84.28
43925000,-84.39
43934000,-84.82
43943000,-84.08
43952000,-83.59
43961000,-85.16
43970000,-84.93
43979000,-83.78
43988000,-83.78
43997000,-84.82
44006000,-84.39
44015000,-82.5
44024000,-83.31
44033000,-83.59
44042000,-83.59
44051000,-85.63
44060000,-85.04
44069000,-83.3
44078000,-85.16
44087000,-85.04
44096000,-84.28
44105000,-84.71
44114000,-84.82
44123000,-83.97
44132000,-83.78
44141000,-83.88
44150000,-83.97
44159000,-84.49
44168000,-84.6
44177000,-85.88
44186000,-84.6
44195000,-83.97
44204000,-84.93
44213000,-83.68
44222000,-84.39
44231000,-84.39
44240000,-84.82
44249000,-84.18
44258000,-84.39
44267000,-83.97
44276000,-84.93
44285000,-85.51
44294000,-85.04
44303000,-84.82
44312000,-85.15
44321000,-84.6
44330000,-83.97
44339000,-83.58
44348000,-85.04
44357000,-84.82
44366000,-82.68
44375000,-83.39
44384000,-85.51
44393000,-84.85
44402000,-84.11
44411000,-84.63
44420000,-84.52
44429000,-84
44438000,-83.71
44447000,-85.3
44456000,-84.52
44465000,-85.18
44474000,-84.85
44483000,-85.07
44492000,-84.52
44501000,-84.2
44510000,-84.63
44519000,-85.78
44528000,-82.7
44537000,-84.73
44546000,-84.11
44555000,-84.11
44564000,-83.52
44573000,-83.9
44582000,-83.23
44591000,-84.2
44600000,-85.3
44609000,-84.11
44618000,-83.61
44627000,-84.2
44636000,-84.2
44645000,-85.07
44654000,-84.41
44663000,-85.78
44672000,-83.23
44681000,-83.23
44690000,-85.3
44699000,-83.51
44708000,-85.42
44717000,-85.07
44726000,-85.07
44735000,-83.61
44744000,-83.8
44753000,-83.8
44762000,-84
44771000,-84.95
44780000,-84
44789000,-84.2
44798000,-84.85
44807000,-83.23
44816000,-83.9
44825000,-84.31
44834000,-84.62
44843000,-85.29
44852000,-82.03
44861000,-82.87
44870000,-83.8
44879000,-86.03
44888000,-83.71
44897000,-84.62
44906000,-84
44915000,-85.78
44924000,-84.31
44933000,-85.18
44942000,-86.03
44951000,-84.84
44960000,-84
44969000,-83.33
44978000,-84
44987000,-78.6
44996000,-56.82
45005000,-62.45
45014000,-81.34
45023000,-85.29
45032000,-84.84
45041000,-84.2
45050000,-84.41
45059000,-84.95
45068000,-84.41
45077000,-83.9
45086000,-83.14
45095000,-83.33
45104000,-84.41
45113000,-84.3
45122000,-83.51
45131000,-84.84
45140000,-84.2
45149000,-84.84
45158000,-84.62
45167000,-83.8
45176000,-84.41
45185000,-85.29
45194000,-84
45203000,-85.06
45212000,-84.2
45221000,-84
45230000,-85.78
45239000,-83.99
45248000,-83.9
45257000,-84.95
45266000,-85.18
45275000,-86.16
45284000,-83.51
45293000,-83.14
45302000,-85.06
45311000,-85.53
45320000,-84.1
45329000,-85.41
45338000,-85.29
45347000,-84.84
45356000,-86.02
45365000,-85.53
45374000,-84.51
45383000,-85.53
45392000,-84.62
45401000,-86.02
45410000,-83.61
45419000,-84.2
45428000,-81.71
45437000,-84.51
45446000,-85.06
45455000,-84.2
45464000,-85.17
45473000,-84.41
45482000,-84.2
45491000,-82.86
45500000,-84.62
45509000,-82.35
45518000,-83.7
45527000,-84.84
45536000,-83.99
45545000,-84.84
45554000,-84.65
45563000,-84.44
45572000,-84.65
45581000,-85.09
45590000,-84.33
45599000,-84.98
45608000,-83.93
45617000,-83.63
45626000,-84.65
45635000,-85.68
45644000,-81.74
45653000,-85.56
45662000,-85.44
45671000,-84.87
45680000,-85.2
45689000,-84.33
45698000,-85.93
45707000,-85.2
45716000,-84.75
45725000,-83.25
45734000,-84.87
45743000,-83.83
45752000,-84.33
45761000,-84.65
45770000,-84.02
45779000,-82.8
45788000,-85.09
45797000,-84.33
45806000,-85.2
45815000,-84.02
45824000,-84.65
45833000,-84.54
45842000,-84.22
45851000,-84.87
45860000,-85.09
45869000,-85.56
45878000,-85.09
45887000,-85.56
45896000,-84.65
45905000,-83.83
45914000,-83.25
45923000,-84.54
45932000,-83.83
45941000,-85.55
45950000,-85.32
45959000,-83.25
45968000,-83.08
45977000,-84.97
45986000,-85.8
45995000,-85.55
46004000,-84.22
46013000,-84.22
46022000,-83.92
46031000,-84.97
46040000,-85.44
46049000,-84.13
46058000,-83.25
46067000,-81.97
46076000,-84.02
46085000,-85.09
46094000,-85.2
46103000,-84.64
46112000,-84.64
46121000,-85.32
46130000,-84.75
46139000,-84.64
46148000,-86.18
46157000,-83.16
46166000,-84.33
46175000,-84.33
46184000,-84.33
46193000,-84.43
46202000,-83.44
46211000,-84.12
46220000,-85.31
46229000,-82.38
46238000,-84.97
46247000,-84.75
46256000,-84.64
46265000,-84.75
46274000,-84.22
46283000,-83.44
46292000,-84.75
46301000,-84.22
46310000,-83.44
46319000,-84.64
46328000,-84.86
46337000,-84.64
46346000,-85.08
46355000,-83.82
46364000,-85.8
46373000,-83.25
46382000,-84.43
46391000,-84.33
46400000,-85.55
46409000,-86.43
46418000,-84.32
46427000,-83.82
46436000,-85.67
46445000,-84.97
46454000,-82.72
46463000,-83.63
46472000,-84.64
46481000,-83.25
46490000,-84.86
46499000,-84.12
46508000,-84.02
46517000,-83.72
46526000,-84.64
46535000,-85.92
46544000,-85.08
46553000,-85.08
46562000,-84.75
46571000,-84.54
46580000,-82.54
46589000,-84.64
46598000,-84.22
46607000,-85.8
46616000,-84.22
46625000,-85.92
46634000,-83.63
46643000,-83.92
46652000,-85.55
46661000,-84.64
46670000,-86.04
46679000,-84.64
46688000,-83.63
46697000,-84.43
46706000,-83.43
46715000,-83.43
46724000,-83.34
46733000,-85.52
46742000,-84.4
46751000,-83.04
46760000,-85.52
46769000,-83.59
46778000,-84.5
46787000,-83.79
46796000,-84.4
46805000,-83.59
46814000,-85.16
46823000,-83.69
46832000,-83.4
46841000,-84.09
46850000,-83.59
46859000,-83.69
46868000,-84.61
46877000,-85.76
46886000,-85.64
46895000,-84.83
46904000,-84.61
46913000,-84.71
46922000,-84.5
46931000,-84.18
46940000,-84.18
46949000,-82.68
46958000,-84.18
46967000,-85.76
46976000,-83.59
46985000,-84.61
46994000,-86.01
47003000,-85.89
47012000,-85.52
47021000,-83.98
47030000,-83.31
47039000,-84.29
47048000,-84.39
47057000,-83.98
47066000,-85.28
47075000,-84.93
47084000,-84.83
47093000,-84.61
47102000,-83.98
47111000,-83.88
47120000,-85.51
47129000,-85.16
47138000,-83.98
47147000,-85.76
47156000,-85.28
47165000,-83.79
47174000,-84.09
47183000,-85.88
47192000,-83.79
47201000,-84.39
47210000,-84.29
47219000,-83.59
47228000,-82.85
47237000,-83.12
47246000,-82.09
47255000,-84.71
47264000,-85.51
47273000,-83.88
47282000,-83.49
47291000,-83.49
47300000,-84.18
47309000,-83.98
47318000,-84.5
47327000,-82.34
47336000,-83.66
47345000,-84.15
47354000,-85.25
47363000,-83.46
47372000,-83.75
47381000,-84.57
47390000,-83.56
47399000,-83.56
47408000,-84.79
47417000,-84.68
47426000,-84.36
47435000,-84.15
47444000,-84.68
47453000,-83.75
47462000,-83.37
47471000,-85.24
47480000,-83.37
47489000,-84.9
47498000,-83.46
47507000,-84.15
47516000,-84.68
47525000,-85.48
47534000,-83.75
47543000,-84.15
47552000,-84.15
47561000,-84.79
47570000,-84.36
47579000,-84.26
47588000,-84.79
47597000,-84.9
47606000,-84.79
47615000,-84.47
47624000,-84.57
47633000,-85.37
47642000,-84.15
47651000,-84.79
47660000,-84.15
47669000,-85.01
47678000,-85.01
47687000,-83.95
47696000,-85.6
47705000,-84.68
47714000,-83.75
47723000,-84.47
47732000,-84.05
47741000,-84.57
47750000,-84.05
47759000,-83.18
47768000,-84.15
47777000,-85.6
47786000,-85.01
47795000,-86.23
47804000,-83.56
47813000,-83
47822000,-83.56
47831000,-83.56
47840000,-82.82
47849000,-85.13
47858000,-84.05
47867000,-85.36
47876000,-84.57
47885000,-83.56
47894000,-85.13
47903000,-81.66
47912000,-84.25
47921000,-83.09
47930000,-84.36
47939000,-83.56
47948000,-84.36
47957000,-83.65
47966000,-85.48
47975000,-83.46
47984000,-84.79
47993000,-84.79
48002000,-84.15
48011000,-84.36
48020000,-83.94
48029000,-83.56
48038000,-85.24
48047000,-84.68
48056000,-84.05
48065000,-84.9
48074000,-84.67
48083000,-83.27
48092000,-85.48
48101000,-83.65
48110000,-82.81
48119000,-85.01
48128000,-82.81
48137000,-83.94
48146000,-84.36
48155000,-83.75
48164000,-83.65
48173000,-84.14
48182000,-84.36
48191000,-85.36
48200000,-85.24
48209000,-84.57
48218000,-84.14
48227000,-84.25
48236000,-84.14
48245000,-85.48
48254000,-83.09
48263000,-85.12
48272000,-85.01
48281000,-85.01
48290000,-83.75
48299000,-84.79
48308000,-83.36
48317000,-84.67
48326000,-84.57
48335000,-85.24
48344000,-84.36
48353000,-84.36
48362000,-84.57
48371000,-84.67
48380000,-84.14
48389000,-84.89
48398000,-86.22
48407000,-84.25
48416000,-84.67
48425000,-84.14
48434000,-85.47
48443000,-84.57
48452000,-84.57
48461000,-83.84
48470000,-83.55
48479000,-83.17
48488000,-85.24
48497000,-84.35
48506000,-85.01
48515000,-83.2
48524000,-85.27
48533000,-84.17
48542000,-82.42
48551000,-84.49
48560000,-83.39
48569000,-84.92
48578000,-84.07
48587000,-85.87
48596000,-83.97
48605000,-84.81
48614000,-82.93
48623000,-83.58
48632000,-84.17
48641000,-84.28
48650000,-83.2
48659000,-84.49
48668000,-83.77
48677000,-82.58
48686000,-83.58
48695000,-84.38
48704000,-82.93
48713000,-83.39
48722000,-82.67
48731000,-84.59
48740000,-85.15
48749000,-83.38
48758000,-83.97
48767000,-81.53
48776000,-85.26
48785000,-83.87
48794000,-84.49
48803000,-83.48
48812000,-82.67
48821000,-84.92
48830000,-84.59
48839000,-83.2
48848000,-84.7
48857000,-86.25
48866000,-83.2
48875000,-85.15
48884000,-84.59
48893000,-83.02
48902000,-84.81
48911000,-85.26
48920000,-85.62
48929000,-84.81
48938000,-84.07
48947000,-83.02
48956000,-83.58
48965000,-83.77
48974000,-82.58
48983000,-84.49
48992000,-84.49
49001000,-84.17
49010000,-83.77
49019000,-83.2
49028000,-85.03
49037000,-84.07
49046000,-84.38
49055000,-85.62
49064000,-84.38
49073000,-83.02
49082000,-84.59
49091000,-83.48
49100000,-83.38
49109000,-84.17
49118000,-85.03
49127000,-85.26
49136000,-83.29
49145000,-82.49
49154000,-82.83
49163000,-84.07
49172000,-84.17
49181000,-85.87
49190000,-84.17
49199000,-84.7
49208000,-83.2
49217000,-85.5
49226000,-83.96
49235000,-84.59
49244000,-82.83
49253000,-85.74
49262000,-84.38
49271000,-82.32
49280000,-84.59
49289000,-84.59
49298000,-85.03
49307000,-84.07
49316000,-82.49
49325000,-84.81
49334000,-84.17
49343000,-85.5
49352000,-84.59
49361000,-83.19
49370000,-84.81
49379000,-85.26
49388000,-84.16
49397000,-84.16
49406000,-83.02
49415000,-84.07
49424000,-83.19
49433000,-85.5
49442000,-84.81
49451000,-84.27
49460000,-83.96
49469000,-84.59
49478000,-84.16
49487000,-83.86
49496000,-84.81
49505000,-84.81
49514000,-83.29
49523000,-83.38
49532000,-82.66
49541000,-84.38
49550000,-84.07
49559000,-84.81
49568000,-83.38
49577000,-85.03
49586000,-82.58
49595000,-84.27
49604000,-83.1
49613000,-83.29
49622000,-84.59
49631000,-84.48
49640000,-84.91
49649000,-85.03
49658000,-85.03
49667000,-84.81
49676000,-84.16
49685000,-83.57
49694000,-84.27
49703000,-84.34
49712000,-83.54
49721000,-83.64
49730000,-84.45
49739000,-84.34
49748000,-84.34
49757000,-85.71
49766000,-83.54
49775000,-85.35
49784000,-85
49793000,-85.71
49802000,-84.24
49811000,-83.16
49820000,-85
49829000,-82.99
49838000,-84.78
49847000,-83.54
49856000,-85.46
49865000,-84.24
49874000,-84.88
49883000,-86.21
49892000,-83.54
49901000,-84.77
49910000,-84.77
49919000,-85.22
49928000,-84.34
49937000,-82.8
49946000,-84.13
49955000,-84.99
49964000,-83.07
49973000,-84.34
49982000,-82.8
49991000,-71.59
50000000,-54.44
