Frequency (Hz),Amplitude (dBm)
100000,-79.02
101000,-56.35
102000,-57.85
103000,-58.76
104000,-59.57
105000,-58.5
106000,-60.46
107000,-60.83
108000,-61.47
109000,-62.4
110000,-62.77
111000,-62.78
112000,-61.52
113000,-62.81
114000,-64.55
115000,-62.91
116000,-63.79
117000,-62.93
118000,-64.32
119000,-63.03
120000,-62.85
121000,-62.94
122000,-63.33
123000,-64.25
124000,-62.4
125000,-64.53
126000,-61.97
127000,-64.04
128000,-62.87
129000,-64.49
130000,-63.5
131000,-62.76
132000,-63.61
133000,-63.62
134000,-63.17
135000,-64.05
136000,-63.65
137000,-64.67
138000,-62.25
139000,-63.85
140000,-64.36
141000,-64.21
142000,-64.92
143000,-65.11
144000,-64.85
145000,-65.61
146000,-65.15
147000,-65.16
148000,-66.26
149000,-64.56
150000,-64.83
151000,-63.75
152000,-66.09
153000,-64.35
154000,-64.27
155000,-64.29
156000,-64.72
157000,-65.95
158000,-65.48
159000,-66.6
160000,-65.32
161000,-65.61
162000,-66.74
163000,-65.26
164000,-67.45
165000,-65.46
166000,-66.79
167000,-67.49
168000,-65.89
169000,-65.9
170000,-66.31
171000,-66.97
172000,-65.36
173000,-66.45
174000,-66.78
175000,-67.35
176000,-67.48
177000,-65.9
178000,-67.27
179000,-68.24
180000,-67.07
181000,-67.77
182000,-68.8
183000,-66.68
184000,-67.93
185000,-67.35
186000,-68.58
187000,-66.12
188000,-66.13
189000,-66.86
190000,-67.64
191000,-67.66
192000,-63.57
193000,-66.59
194000,-66.01
195000,-64.6
196000,-63.47
197000,-62.82
198000,-61.37
199000,-61.5
200000,-61.29
201000,-60.76
202000,-61.87
203000,-62.12
204000,-64.44
205000,-64.68
206000,-66.5
207000,-67.92
208000,-67.35
209000,-68.8
210000,-68.68
211000,-69.74
212000,-68.56
213000,-69.82
214000,-70.51
215000,-69.91
216000,-69.7
217000,-68.09
218000,-66.46
219000,-69.71
220000,-68.73
221000,-69.12
222000,-67.87
223000,-69.31
224000,-69.59
225000,-70.26
226000,-68.38
227000,-68.51
228000,-69.68
229000,-71.69
230000,-69.84
231000,-68.16
232000,-68.91
233000,-70.69
234000,-71.11
235000,-70.23
236000,-68.3
237000,-69.73
238000,-69.59
239000,-69.08
240000,-71.22
241000,-70.49
242000,-70.89
243000,-68.46
244000,-69.48
245000,-70.28
246000,-70.22
247000,-71.34
248000,-70.68
249000,-71.02
250000,-71.27
251000,-70.31
252000,-70.17
253000,-71.04
254000,-71.21
255000,-70.41
256000,-71.91
257000,-70.12
258000,-70.65
259000,-71.57
260000,-70.51
261000,-69.64
262000,-69.43
263000,-71.42
264000,-71.34
265000,-69.8
266000,-70.17
267000,-70.02
268000,-71.7
269000,-70.87
270000,-71.29
271000,-70.72
272000,-70.35
273000,-71.81
274000,-70.51
275000,-71.14
276000,-71.15
277000,-69.58
278000,-71.41
279000,-72.03
280000,-72.31
281000,-70.93
282000,-69.42
283000,-71.61
284000,-70.4
285000,-71.27
286000,-69.55
287000,-69.32
288000,-68.81
289000,-65.87
290000,-64.33
291000,-63.45
292000,-61.11
293000,-57.43
294000,-54.69
295000,-52.02
296000,-49.72
297000,-47.75
298000,-46.38
299000,-45.52
300000,-45.29
301000,-45.6
302000,-46.46
303000,-47.77
304000,-49.63
305000,-52.11
306000,-55.02
307000,-58.14
308000,-60.85
309000,-64.23
310000,-65.84
311000,-67.81
312000,-68.87
313000,-70.11
314000,-70.56
315000,-69.09
316000,-70.83
317000,-71.4
318000,-70.08
319000,-72.96
320000,-73.91
321000,-73.26
322000,-71.24
323000,-72.96
324000,-73.16
325000,-74.02
326000,-74.02
327000,-73.69
328000,-73.58
329000,-72.37
330000,-73.8
331000,-74.38
332000,-73.91
333000,-73.48
334000,-73.8
335000,-73.06
336000,-73.37
337000,-72.66
338000,-74.61
339000,-73.16
340000,-74.98
341000,-73.37
342000,-73.16
343000,-74.25
344000,-73.91
345000,-74.86
346000,-72.57
347000,-73.58
348000,-73.8
349000,-73.58
350000,-72.1
351000,-73.16
352000,-73.58
353000,-73.91
354000,-72.66
355000,-73.37
356000,-74.14
357000,-74.25
358000,-73.26
359000,-74.02
360000,-73.69
361000,-73.58
362000,-73.8
363000,-74.61
364000,-74.98
365000,-72.96
366000,-73.26
367000,-74.61
368000,-73.8
369000,-74.61
370000,-74.86
371000,-74.86
372000,-72.76
373000,-72.96
374000,-74.14
375000,-74.74
376000,-74.49
377000,-74.38
378000,-73.8
379000,-74.74
380000,-73.58
381000,-75.12
382000,-75.68
383000,-75.44
384000,-75.9
385000,-74.42
386000,-74.55
387000,-75.44
388000,-74.67
389000,-74.42
390000,-75.31
391000,-74.07
392000,-75.05
393000,-70.92
394000,-72.12
395000,-71.59
396000,-69.03
397000,-69.41
398000,-68.4
399000,-68.29
400000,-68.16
401000,-68.05
402000,-68.77
403000,-70.23
404000,-71.17
405000,-72.03
406000,-71.34
407000,-73.74
408000,-73.41
409000,-74.07
410000,-74.55
411000,-74.92
412000,-74.79
413000,-75.05
414000,-73.62
415000,-75.9
416000,-76.48
417000,-74.67
418000,-75.97
419000,-76.26
420000,-75.05
421000,-73.84
422000,-75.44
423000,-75.61
424000,-75.9
425000,-74.55
426000,-73.51
427000,-75.17
428000,-75.75
429000,-76.48
430000,-76.79
431000,-74.55
432000,-76.48
433000,-75.17
434000,-74.55
435000,-75.17
436000,-75.75
437000,-75.61
438000,-73.74
439000,-74.55
440000,-75.83
441000,-75.17
442000,-75.97
443000,-75.44
444000,-76.33
445000,-75.9
446000,-77.19
447000,-75.17
448000,-74.79
449000,-74.42
450000,-76.18
451000,-75.17
452000,-75.27
453000,-75.02
454000,-74.89
455000,-74.65
456000,-74.65
457000,-76.58
458000,-75.02
459000,-75.64
460000,-76.51
461000,-76.07
462000,-75.78
463000,-75.54
464000,-75.85
465000,-76.07
466000,-75.27
467000,-75.4
468000,-74.28
469000,-76.43
470000,-76.14
471000,-74.65
472000,-76.14
473000,-75.78
474000,-74.65
475000,-76.28
476000,-76
477000,-77.29
478000,-73.83
479000,-75.92
480000,-75.71
481000,-75.15
482000,-76
483000,-75.54
484000,-76.21
485000,-75.02
486000,-76.58
487000,-76.51
488000,-76.14
489000,-77.37
490000,-77.04
491000,-75.4
492000,-74.41
493000,-75.15
494000,-77.2
495000,-75.92
496000,-75.27
497000,-74.89
498000,-74.17
499000,-74.65
500000,-74.28
501000,-75.02
502000,-74.65
503000,-74.89
504000,-75.15
505000,-75.85
506000,-75.85
507000,-76.51
508000,-74.41
509000,-75.15
510000,-77.54
511000,-76.81
512000,-75.15
513000,-77.29
514000,-76.81
515000,-77.54
516000,-76.97
517000,-76.28
518000,-75.71
519000,-76.51
520000,-78.91
521000,-76.89
522000,-76.81
523000,-77.54
524000,-76.81
525000,-77.2
526000,-77.46
527000,-76.43
528000,-76.97
529000,-77.2
530000,-76.28
531000,-76.43
532000,-76.73
533000,-76.21
534000,-74.89
535000,-76.28
536000,-75.02
537000,-77.71
538000,-76.28
539000,-76.14
540000,-74.05
541000,-76.97
542000,-75.15
543000,-75.54
544000,-77.63
545000,-77.97
546000,-75.71
547000,-76.89
548000,-75.15
549000,-75.4
550000,-77.04
551000,-76.43
552000,-76.89
553000,-75.27
554000,-77.2
555000,-75.85
556000,-76.73
557000,-77.54
558000,-77.54
559000,-77.88
560000,-77.71
561000,-77.12
562000,-75.4
563000,-76.43
564000,-76.28
565000,-77.54
566000,-77.79
567000,-78.07
568000,-76.51
569000,-77.37
570000,-75.99
571000,-78.07
572000,-77.63
573000,-77.79
574000,-75.15
575000,-77.2
576000,-76.58
577000,-76.89
578000,-76.58
579000,-76.07
580000,-77.54
581000,-76.81
582000,-76.14
583000,-74.65
584000,-77.54
585000,-77.63
586000,-76.89
587000,-76.14
588000,-76.43
589000,-77.71
590000,-75.71
591000,-75.99
592000,-77.46
593000,-77.2
594000,-77.46
595000,-76.73
596000,-77.04
597000,-75.78
598000,-75.64
599000,-77.37
600000,-77.12
601000,-76.73
602000,-75.85
603000,-77.63
604000,-77.04
605000,-76.81
606000,-77.71
607000,-75.54
608000,-77.54
609000,-77.2
610000,-77.71
611000,-76.21
612000,-77.2
613000,-78.24
614000,-77.54
615000,-76.73
616000,-78.82
617000,-76.58
618000,-76.36
619000,-77.12
620000,-75.78
621000,-75.54
622000,-76.43
623000,-78.53
624000,-75.85
625000,-76.14
626000,-75.71
627000,-75.64
628000,-76.28
629000,-77.12
630000,-76.28
631000,-76.88
632000,-78.15
633000,-76.28
634000,-77.04
635000,-78.07
636000,-77.2
637000,-75.85
638000,-76.28
639000,-76.21
640000,-76.73
641000,-77.71
642000,-77.2
643000,-77.2
644000,-77.71
645000,-77.46
646000,-78.24
647000,-78.15
648000,-77.88
649000,-76.14
650000,-76.81
651000,-78.24
652000,-76.36
653000,-77.63
654000,-77.2
655000,-77.2
656000,-77.54
657000,-78.03
658000,-77.09
659000,-76.54
660000,-78.39
661000,-76.32
662000,-76.85
663000,-76.54
664000,-77.01
665000,-76.54
666000,-76.54
667000,-79.08
668000,-76.32
669000,-78.03
670000,-77.85
671000,-77.85
672000,-76.47
673000,-77.17
674000,-77.5
675000,-76.17
676000,-77.26
677000,-78.98
678000,-76.24
679000,-78.31
680000,-77.17
681000,-76.32
682000,-77.5
683000,-77.01
684000,-77.5
685000,-77.26
686000,-76.62
687000,-78.31
688000,-77.01
689000,-77.34
690000,-78.31
691000,-77.85
692000,-78.39
693000,-78.59
694000,-78.59
695000,-77.76
696000,-77.26
697000,-77.5
698000,-77.68
699000,-75.68
700000,-77.01
701000,-77.59
702000,-76.39
703000,-76.62
704000,-76.32
705000,-78.03
706000,-77.85
707000,-78.78
708000,-79.39
709000,-79.08
710000,-77.68
711000,-78.59
712000,-78.59
713000,-78.98
714000,-78.31
715000,-79.39
716000,-79.39
717000,-79.29
718000,-79.71
719000,-79.39
720000,-78.03
721000,-76.69
722000,-78.98
723000,-78.59
724000,-79.5
725000,-77.73
726000,-78.18
727000,-78.65
728000,-78.94
729000,-79.05
730000,-79.79
731000,-79.57
732000,-78.94
733000,-78.65
734000,-78.55
735000,-79.15
736000,-79.57
737000,-79.36
738000,-78.09
739000,-76.98
740000,-78.46
741000,-78.55
742000,-79.79
743000,-78
744000,-76.21
745000,-79.25
746000,-79.46
747000,-77.65
748000,-79.67
749000,-79.57
750000,-79.57
751000,-79.05
752000,-79.36
753000,-77.39
754000,-79.57
755000,-79.36
756000,-77.65
757000,-79.15
758000,-78.94
759000,-79.15
760000,-78.36
761000,-80.97
762000,-79.36
763000,-79.57
764000,-80.36
765000,-78.75
766000,-78.65
767000,-79.36
768000,-77.81
769000,-78.75
770000,-79.46
771000,-77.3
772000,-80.48
773000,-79.36
774000,-77.81
775000,-78.27
776000,-79.57
777000,-80.97
778000,-79.79
779000,-77.3
780000,-79.67
781000,-77.9
782000,-79.36
783000,-79.15
784000,-78.85
785000,-78.94
786000,-81.23
787000,-79.67
788000,-79.15
789000,-80.97
790000,-79.89
791000,-78.85
792000,-80.48
793000,-79.36
794000,-78.88
795000,-77.34
796000,-76.77
797000,-78.12
798000,-77.68
799000,-77.26
800000,-78.03
801000,-79.08
802000,-75.24
803000,-79.6
804000,-78.59
805000,-79.82
806000,-78.68
807000,-79.6
808000,-79.18
809000,-79.6
810000,-80.16
811000,-79.28
812000,-79.18
813000,-79.71
814000,-78.78
815000,-78.98
816000,-80.04
817000,-78.78
818000,-79.82
819000,-79.93
820000,-79.82
821000,-79.08
822000,-79.18
823000,-81.52
824000,-80.27
825000,-80.4
826000,-80.88
827000,-79.93
828000,-80.27
829000,-78.12
830000,-80.63
831000,-79.71
832000,-79.82
833000,-80.51
834000,-80.76
835000,-79.82
836000,-80.4
837000,-79.5
838000,-79.93
839000,-81.26
840000,-79.39
841000,-78.59
842000,-78.21
843000,-80.4
844000,-80.88
845000,-80.27
846000,-81.14
847000,-79.18
848000,-80.27
849000,-79.39
850000,-80.27
851000,-79.39
852000,-79.5
853000,-80.04
854000,-80.63
855000,-80.76
856000,-79.93
857000,-80.27
858000,-80.4
859000,-80.27
860000,-80.76
861000,-79.67
862000,-80.97
863000,-80.12
864000,-79.89
865000,-79.79
866000,-80.97
867000,-79.67
868000,-79.36
869000,-80.01
870000,-80.24
871000,-81.1
872000,-80.24
873000,-78.27
874000,-80.6
875000,-80.12
876000,-80.12
877000,-80.85
878000,-80.97
879000,-81.49
880000,-80.72
881000,-80.48
882000,-80.48
883000,-79.14
884000,-80.01
885000,-80.01
886000,-80.24
887000,-79.57
888000,-81.49
889000,-80.48
890000,-79.57
891000,-79.89
892000,-80.48
893000,-81.23
894000,-80.72
895000,-79.67
896000,-78.75
897000,-78.75
898000,-77.13
899000,-78.36
900000,-77.81
901000,-78
902000,-78
903000,-78.84
904000,-80.01
905000,-80.97
906000,-80.01
907000,-80.85
908000,-79.89
909000,-80.72
910000,-81.49
911000,-79.79
912000,-79.67
913000,-80.72
914000,-81.23
915000,-77.47
916000,-81.1
917000,-81.67
918000,-81.67
919000,-79.79
920000,-81.36
921000,-82.02
922000,-81.23
923000,-80.36
924000,-79.57
925000,-80.24
926000,-80.97
927000,-78.55
928000,-81.87
929000,-81.04
930000,-79.63
931000,-79.53
932000,-80.54
933000,-79.53
934000,-80.08
935000,-79.01
936000,-81.87
937000,-81.29
938000,-81.29
939000,-80.67
940000,-80.91
941000,-81.04
942000,-81.29
943000,-80.3
944000,-80.79
945000,-81.04
946000,-81.56
947000,-81.73
948000,-81.29
949000,-80.91
950000,-81.56
951000,-81.04
952000,-81.42
953000,-77.79
954000,-81.42
955000,-80.79
956000,-79.63
957000,-80.54
958000,-79.21
959000,-80.54
960000,-81.42
961000,-81.87
962000,-81.04
963000,-81.73
964000,-82.3
965000,-81.56
966000,-81.29
967000,-79.74
968000,-80.43
969000,-80.54
970000,-82.02
971000,-81.04
972000,-78.62
973000,-80.3
974000,-79.53
975000,-79.85
976000,-80.19
977000,-80.43
978000,-80.91
979000,-81.29
980000,-82.45
981000,-81.17
982000,-81.04
983000,-81.42
984000,-80.91
985000,-81.42
986000,-82.16
987000,-82.16
988000,-80.3
989000,-80.91
990000,-79.85
991000,-80.67
992000,-81.56
993000,-80.67
994000,-80.54
995000,-78.72
996000,-80.27
997000,-78.03
998000,-78.03
999000,-76.85
1000000,-77.76
1001000,-76.32
1002000,-78.88
1003000,-80.16
1004000,-79.82
1005000,-79.82
1006000,-81.98
1007000,-81.52
1008000,-81.26
1009000,-79.39
1010000,-82.71
1011000,-81.13
1012000,-81.77
1013000,-81.52
1014000,-81.7
1015000,-81.7
1016000,-81.7
1017000,-81.77
1018000,-81.26
1019000,-81.39
1020000,-81.98
1021000,-81.52
1022000,-81.26
1023000,-80.27
1024000,-82.56
1025000,-81.39
1026000,-81.7
1027000,-81
1028000,-81.84
1029000,-81.39
1030000,-81.77
1031000,-82.26
1032000,-80.76
1033000,-80.76
1034000,-82.34
1035000,-81.26
1036000,-82.34
1037000,-81.13
1038000,-81.52
1039000,-81.77
1040000,-82.41
1041000,-83.87
1042000,-81
1043000,-82.95
1044000,-81.84
1045000,-81.26
1046000,-82.34
1047000,-81.26
1048000,-80.76
1049000,-81
1050000,-81.78
1051000,-81.2
1052000,-81.33
1053000,-82.89
1054000,-79.98
1055000,-81.78
1056000,-80.82
1057000,-79.54
1058000,-81.47
1059000,-81.78
1060000,-80.7
1061000,-81.78
1062000,-81.71
1063000,-81.99
1064000,-81.5
1065000,-81.82
1066000,-82.03
1067000,-82.39
1068000,-82.1
1069000,-80.13
1070000,-82.69
1071000,-81.23
1072000,-78.09
1073000,-82.54
1074000,-81.68
1075000,-82.03
1076000,-81.5
1077000,-81.11
1078000,-81.96
1079000,-80.25
1080000,-81.68
1081000,-82.03
1082000,-80.98
1083000,-81.23
1084000,-80.48
1085000,-81.5
1086000,-81.23
1087000,-81.11
1088000,-81.68
1089000,-82.62
1090000,-81.5
1091000,-82.69
1092000,-81.75
1093000,-80.98
1094000,-82.39
1095000,-80.48
1096000,-79.9
1097000,-77.57
1098000,-78.09
1099000,-77.4
1100000,-79.26
1101000,-77.73
1102000,-78.28
1103000,-80.13
1104000,-79.47
1105000,-81.23
1106000,-80.98
1107000,-79.26
1108000,-82.32
1109000,-81.23
1110000,-80.25
1111000,-79.68
1112000,-81.5
1113000,-83.01
1114000,-81.82
1115000,-81.23
1116000,-80.48
1117000,-82.54
1118000,-83.17
1119000,-81.37
1120000,-82.39
1121000,-82.93
1122000,-81.23
1123000,-82.69
1124000,-82.39
1125000,-82.54
1126000,-82.69
1127000,-81.37
1128000,-82.62
1129000,-81.67
1130000,-79.8
1131000,-82.32
1132000,-80.66
1133000,-82.32
1134000,-82.03
1135000,-82.62
1136000,-80.66
1137000,-81.61
1138000,-80.66
1139000,-81.61
1140000,-82.03
1141000,-82.03
1142000,-80.66
1143000,-80.66
1144000,-83.27
1145000,-83.27
1146000,-82.03
1147000,-80.42
1148000,-82.03
1149000,-81.3
1150000,-80.3
1151000,-83.19
1152000,-82.55
1153000,-81.43
1154000,-82.17
1155000,-82.03
1156000,-82.32
1157000,-82.03
1158000,-81.75
1159000,-81.89
1160000,-82.86
1161000,-80.79
1162000,-80.42
1163000,-82.86
1164000,-82.25
1165000,-83.1
1166000,-81.89
1167000,-82.62
1168000,-81.17
1169000,-82.86
1170000,-81.89
1171000,-82.55
1172000,-81.61
1173000,-80.79
1174000,-82.55
1175000,-83.52
1176000,-81.43
1177000,-82.47
1178000,-81.68
1179000,-81.89
1180000,-80.3
1181000,-82.78
1182000,-80.91
1183000,-83.1
1184000,-81.89
1185000,-83.1
1186000,-82.55
1187000,-83.61
1188000,-79.3
1189000,-82.94
1190000,-82.32
1191000,-80.42
1192000,-81.89
1193000,-81.43
1194000,-82.78
1195000,-81.04
1196000,-79.73
1197000,-79.95
1198000,-78.76
1199000,-78.76
1200000,-79.47
1201000,-78.56
1202000,-78.76
1203000,-79.26
1204000,-80.73
1205000,-81.5
1206000,-82.1
1207000,-83.16
1208000,-81.96
1209000,-81.96
1210000,-82.39
1211000,-81.5
1212000,-82.32
1213000,-82.85
1214000,-82.62
1215000,-83.25
1216000,-83.01
1217000,-82.85
1218000,-83.5
1219000,-80.25
1220000,-81.82
1221000,-82.32
1222000,-83.01
1223000,-81.74
1224000,-83.68
1225000,-80.98
1226000,-82.54
1227000,-82.93
1228000,-82.69
1229000,-80.98
1230000,-82.69
1231000,-82.1
1232000,-82.85
1233000,-82.69
1234000,-83.16
1235000,-81.82
1236000,-82.24
1237000,-82.54
1238000,-82.85
1239000,-83.5
1240000,-82.03
1241000,-82.1
1242000,-82.85
1243000,-81.96
1244000,-83.01
1245000,-82.39
1246000,-82.93
1247000,-82.85
1248000,-82.85
1249000,-82.54
1250000,-82.24
1251000,-81.23
1252000,-81.5
1253000,-83.16
1254000,-82.93
1255000,-83.5
1256000,-82.1
1257000,-81.23
1258000,-80.48
1259000,-82.54
1260000,-83.16
1261000,-81.81
1262000,-82.93
1263000,-82.2
1264000,-82.58
1265000,-81.46
1266000,-83.81
1267000,-82.28
1268000,-82.2
1269000,-82.65
1270000,-82.89
1271000,-82.81
1272000,-82.65
1273000,-82.81
1274000,-82.28
1275000,-82.97
1276000,-82.89
1277000,-82.5
1278000,-83.13
1279000,-82.58
1280000,-81.92
1281000,-83.22
1282000,-82.65
1283000,-83.55
1284000,-82.35
1285000,-82.06
1286000,-82.65
1287000,-82.81
1288000,-82.81
1289000,-82.5
1290000,-83.64
1291000,-80.82
1292000,-83.55
1293000,-82.28
1294000,-81.71
1295000,-80.82
1296000,-81.2
1297000,-79.12
1298000,-80.1
1299000,-78.33
1300000,-78.82
1301000,-79.12
1302000,-79.87
1303000,-79.65
1304000,-81.46
1305000,-81.08
1306000,-81.64
1307000,-82.2
1308000,-82.35
1309000,-82.97
1310000,-80.82
1311000,-82.65
1312000,-83.22
1313000,-83.55
1314000,-83.13
1315000,-82.89
1316000,-81.2
1317000,-82.81
1318000,-83.47
1319000,-82.35
1320000,-81.08
1321000,-82.65
1322000,-83.3
1323000,-83.22
1324000,-82.97
1325000,-82.65
1326000,-83.55
1327000,-82.35
1328000,-83.22
1329000,-81.71
1330000,-82.58
1331000,-82.06
1332000,-81.74
1333000,-83.93
1334000,-81.23
1335000,-82.62
1336000,-83
1337000,-82.54
1338000,-81.81
1339000,-83.33
1340000,-81.74
1341000,-83.16
1342000,-81.96
1343000,-84.68
1344000,-84.03
1345000,-82.62
1346000,-83
1347000,-82.62
1348000,-83.33
1349000,-84.2
1350000,-82.39
1351000,-83.5
1352000,-83.25
1353000,-82.54
1354000,-83.59
1355000,-82.85
1356000,-82.54
1357000,-83.59
1358000,-83.93
1359000,-83.33
1360000,-83
1361000,-83.25
1362000,-81.67
1363000,-83.16
1364000,-82.62
1365000,-84.03
1366000,-81.96
1367000,-81.67
1368000,-81.67
1369000,-82.03
1370000,-83.25
1371000,-84.3
1372000,-82.69
1373000,-82.54
1374000,-83.59
1375000,-83.33
1376000,-83.25
1377000,-81.96
1378000,-83.93
1379000,-82.69
1380000,-81.5
1381000,-82.1
1382000,-82.93
1383000,-83.25
1384000,-82.1
1385000,-81.67
1386000,-84.2
1387000,-83.84
1388000,-81.5
1389000,-79.79
1390000,-82.32
1391000,-83.33
1392000,-81.5
1393000,-80.73
1394000,-80.73
1395000,-80.98
1396000,-79.57
1397000,-80.01
1398000,-78.09
1399000,-79.15
1400000,-78.37
1401000,-78.37
1402000,-79.9
1403000,-79.57
1404000,-79.36
1405000,-81.67
1406000,-81.81
1407000,-82.1
1408000,-82.1
1409000,-84.03
1410000,-82.1
1411000,-82.54
1412000,-82.85
1413000,-84.78
1414000,-84.3
1415000,-82.03
1416000,-83
1417000,-82.92
1418000,-81.5
1419000,-82.32
1420000,-81.74
1421000,-83.59
1422000,-84.68
1423000,-81.81
1424000,-84.2
1425000,-83.33
1426000,-83.59
1427000,-83.5
1428000,-83
1429000,-83
1430000,-84.58
1431000,-83.25
1432000,-83.59
1433000,-83.25
1434000,-83.67
1435000,-81.67
1436000,-82.69
1437000,-82.92
1438000,-82.54
1439000,-84.2
1440000,-83.5
1441000,-84.03
1442000,-82.54
1443000,-82.69
1444000,-81.5
1445000,-83.5
1446000,-83.59
1447000,-81.11
1448000,-81.95
1449000,-80.61
1450000,-83
1451000,-83
1452000,-83.16
1453000,-82.62
1454000,-82.24
1455000,-84.58
1456000,-83
1457000,-82.62
1458000,-83.67
1459000,-83.33
1460000,-82.69
1461000,-83.84
1462000,-81.5
1463000,-83.59
1464000,-82.92
1465000,-83.33
1466000,-82.86
1467000,-83.61
1468000,-83.26
1469000,-80.41
1470000,-83.61
1471000,-84.61
1472000,-83.52
1473000,-83.61
1474000,-82.62
1475000,-82.17
1476000,-83.26
1477000,-83.43
1478000,-83.52
1479000,-82.32
1480000,-85.11
1481000,-83.1
1482000,-81.75
1483000,-83.18
1484000,-83.26
1485000,-83.18
1486000,-83.61
1487000,-84.14
1488000,-84.14
1489000,-83.43
1490000,-83.96
1491000,-83.77
1492000,-83.96
1493000,-83.43
1494000,-80.54
1495000,-82.17
1496000,-81.43
1497000,-79.08
1498000,-79.29
1499000,-79.19
1500000,-78.49
1501000,-78.4
1502000,-78.69
1503000,-80.66
1504000,-78.88
1505000,-80.18
1506000,-82.17
1507000,-82.17
1508000,-83.43
1509000,-82.78
1510000,-83.43
1511000,-83.86
1512000,-85.01
1513000,-82.32
1514000,-83.18
1515000,-82.94
1516000,-83.96
1517000,-83.1
1518000,-83.1
1519000,-82.47
1520000,-82.03
1521000,-82.62
1522000,-84.61
1523000,-83.52
1524000,-82.17
1525000,-82.94
1526000,-83.43
1527000,-82.86
1528000,-82.94
1529000,-83.61
1530000,-81.11
1531000,-83.55
1532000,-84.27
1533000,-84.46
1534000,-83.75
1535000,-82.6
1536000,-82.45
1537000,-82.84
1538000,-82.76
1539000,-83.94
1540000,-81.58
1541000,-83.08
1542000,-84.21
1543000,-80.76
1544000,-81.41
1545000,-82.84
1546000,-83.5
1547000,-83.59
1548000,-83.08
1549000,-84.5
1550000,-82.3
1551000,-83.94
1552000,-82.45
1553000,-82.92
1554000,-83.41
1555000,-83.84
1556000,-82.3
1557000,-81.87
1558000,-82.6
1559000,-83.75
1560000,-83.16
1561000,-82.84
1562000,-83.75
1563000,-81.28
1564000,-82.92
1565000,-82.92
1566000,-83.16
1567000,-81.73
1568000,-82.01
1569000,-83.08
1570000,-82.23
1571000,-83.16
1572000,-83.94
1573000,-82.3
1574000,-83.5
1575000,-82.6
1576000,-84.21
1577000,-82.6
1578000,-83.59
1579000,-82.84
1580000,-83.16
1581000,-82.23
1582000,-83.94
1583000,-82.84
1584000,-84.12
1585000,-82.15
1586000,-82.76
1587000,-82.45
1588000,-81.58
1589000,-84.59
1590000,-84.49
1591000,-82.15
1592000,-82.53
1593000,-83.08
1594000,-82.6
1595000,-82.01
1596000,-80.64
1597000,-80.39
1598000,-78.97
1599000,-79.71
1600000,-79.49
1601000,-78.37
1602000,-78.57
1603000,-79.17
1604000,-81.14
1605000,-81.11
1606000,-82.8
1607000,-83.55
1608000,-83.55
1609000,-83.81
1610000,-84.27
1611000,-82.42
1612000,-83.13
1613000,-82.8
1614000,-81.37
1615000,-82.57
1616000,-82.57
1617000,-83.04
1618000,-83.55
1619000,-84.96
1620000,-82.8
1621000,-83.38
1622000,-83.38
1623000,-81.69
1624000,-83.38
1625000,-82.57
1626000,-83.72
1627000,-81.9
1628000,-84.46
1629000,-84.96
1630000,-82.88
1631000,-84.27
1632000,-84.27
1633000,-84.56
1634000,-83.81
1635000,-84.56
1636000,-82.49
1637000,-82.42
1638000,-83.72
1639000,-84.18
1640000,-84.56
1641000,-83.38
1642000,-83.38
1643000,-83.21
1644000,-82.57
1645000,-82.27
1646000,-82.42
1647000,-84.18
1648000,-82.88
1649000,-84.46
1650000,-83.38
1651000,-83.72
1652000,-83.38
1653000,-84.18
1654000,-84.46
1655000,-82.49
1656000,-83.04
1657000,-82.88
1658000,-83.91
1659000,-83.21
1660000,-83.13
1661000,-83.46
1662000,-83.81
1663000,-83.38
1664000,-82.8
1665000,-84.56
1666000,-82.56
1667000,-81.83
1668000,-83.21
1669000,-82.12
1670000,-82.19
1671000,-83.13
1672000,-83.81
1673000,-81.37
1674000,-84.08
1675000,-83.44
1676000,-82.56
1677000,-84.15
1678000,-82.33
1679000,-82.87
1680000,-84.72
1681000,-83.62
1682000,-84.25
1683000,-83.79
1684000,-81.62
1685000,-82.48
1686000,-83.28
1687000,-84.62
1688000,-81.97
1689000,-84.33
1690000,-82.87
1691000,-82.48
1692000,-82.79
1693000,-83.79
1694000,-81.62
1695000,-80.92
1696000,-80.8
1697000,-79.96
1698000,-79.74
1699000,-78.22
1700000,-77.95
1701000,-78.89
1702000,-79.09
1703000,-79.96
1704000,-80.92
1705000,-82.26
1706000,-83.11
1707000,-83.79
1708000,-83.87
1709000,-83.87
1710000,-83.98
1711000,-83.06
1712000,-83.64
1713000,-84.64
1714000,-85.55
1715000,-83.9
1716000,-83.64
1717000,-83.55
1718000,-83.31
1719000,-83.55
1720000,-83.64
1721000,-84.44
1722000,-83.38
1723000,-82.59
1724000,-83.73
1725000,-83.9
1726000,-83.98
1727000,-83.98
1728000,-82.01
1729000,-84.64
1730000,-83.06
1731000,-84.08
1732000,-83.73
1733000,-82.08
1734000,-83.31
1735000,-84.64
1736000,-83.55
1737000,-83.06
1738000,-84.08
1739000,-83.98
1740000,-82.44
1741000,-82.67
1742000,-83.06
1743000,-83.31
1744000,-84.44
1745000,-83.31
1746000,-82.9
1747000,-84.44
1748000,-83.06
1749000,-83.9
1750000,-83.64
1751000,-84.64
1752000,-84.83
1753000,-82.01
1754000,-83.22
1755000,-82.67
1756000,-84.83
1757000,-84.44
1758000,-83.73
1759000,-85.23
1760000,-83.55
1761000,-82.74
1762000,-83.73
1763000,-83.31
1764000,-83.38
1765000,-83.22
1766000,-83.64
1767000,-83.98
1768000,-83.22
1769000,-83.9
1770000,-83.9
1771000,-83.06
1772000,-82.98
1773000,-82.98
1774000,-84.44
1775000,-83.22
1776000,-82.44
1777000,-83.22
1778000,-83.98
1779000,-83.22
1780000,-82.74
1781000,-84.26
1782000,-84.26
1783000,-83.73
1784000,-83.06
1785000,-83.22
1786000,-83.73
1787000,-84.26
1788000,-84.83
1789000,-82.98
1790000,-82.74
1791000,-83.9
1792000,-83.38
1793000,-83.9
1794000,-82.98
1795000,-81.8
1796000,-80.07
1797000,-79.85
1798000,-79.42
1799000,-79
1800000,-79.73
1801000,-79.11
1802000,-80.07
1803000,-80.78
1804000,-81.03
1805000,-82.08
1806000,-83.22
1807000,-83.55
1808000,-82.59
1809000,-83.38
1810000,-82.95
1811000,-83.18
1812000,-81.52
1813000,-83.95
1814000,-84.41
1815000,-84.99
1816000,-85.1
1817000,-82.64
1818000,-84.05
1819000,-84.8
1820000,-82.87
1821000,-81.52
1822000,-82.71
1823000,-83.95
1824000,-83.86
1825000,-83.86
1826000,-83.95
1827000,-83.27
1828000,-84.05
1829000,-82.87
1830000,-84.05
1831000,-84.05
1832000,-85.19
1833000,-82.94
1834000,-83.69
1835000,-82.41
1836000,-83.61
1837000,-84.05
1838000,-85.19
1839000,-82.41
1840000,-84.7
1841000,-83.52
1842000,-83.95
1843000,-84.6
1844000,-84.22
1845000,-84.41
1846000,-83.86
1847000,-83.61
1848000,-84.8
1849000,-82.64
1850000,-84.22
1851000,-83.18
1852000,-84.6
1853000,-84.22
1854000,-83.27
1855000,-83.86
1856000,-84.22
1857000,-83.95
1858000,-81.69
1859000,-83.69
1860000,-83.86
1861000,-82.71
1862000,-85.51
1863000,-84.32
1864000,-82.94
1865000,-82.41
1866000,-82.05
1867000,-83.61
1868000,-83.61
1869000,-84.22
1870000,-82.56
1871000,-80.75
1872000,-81.25
1873000,-84.41
1874000,-83.61
1875000,-83.52
1876000,-82.08
1877000,-80.3
1878000,-85.02
1879000,-81.87
1880000,-83.64
1881000,-84.44
1882000,-83.06
1883000,-83.38
1884000,-83.98
1885000,-83.73
1886000,-83.64
1887000,-83.98
1888000,-83.9
1889000,-84.08
1890000,-84.08
1891000,-81.87
1892000,-82.74
1893000,-81.87
1894000,-80.91
1895000,-82.08
1896000,-81.03
1897000,-80.78
1898000,-79.31
1899000,-79.63
1900000,-80.18
1901000,-78.42
1902000,-80.18
1903000,-80.07
1904000,-81.03
1905000,-80.66
1906000,-81.73
1907000,-83.38
1908000,-84.26
1909000,-82.98
1910000,-82.37
1911000,-84.08
1912000,-82.29
1913000,-83.06
1914000,-82.74
1915000,-83.3
1916000,-83.38
1917000,-83.89
1918000,-83.73
1919000,-83.64
1920000,-85.02
1921000,-85.13
1922000,-82.98
1923000,-84.08
1924000,-82.67
1925000,-84.08
1926000,-83.89
1927000,-84.44
1928000,-83.98
1929000,-84.83
1930000,-83.06
1931000,-82.9
1932000,-84.26
1933000,-84.26
1934000,-83.73
1935000,-83.73
1936000,-84.83
1937000,-83.38
1938000,-84.26
1939000,-83.64
1940000,-84.44
1941000,-84.44
1942000,-82.98
1943000,-84.26
1944000,-82.59
1945000,-83.89
1946000,-83.64
1947000,-82.98
1948000,-82.37
1949000,-83.98
1950000,-85.38
1951000,-84.58
1952000,-83.93
1953000,-83.84
1954000,-84.77
1955000,-83.33
1956000,-83.49
1957000,-83
1958000,-82.92
1959000,-83.58
1960000,-83.58
1961000,-84.38
1962000,-82.92
1963000,-83.67
1964000,-83.93
1965000,-83.49
1966000,-84.3
1967000,-84.97
1968000,-84.3
1969000,-84.02
1970000,-83.49
1971000,-85.07
1972000,-83.93
1973000,-83.49
1974000,-85.17
1975000,-85.07
1976000,-83
1977000,-83.49
1978000,-84.2
1979000,-83
1980000,-84.02
1981000,-84.2
1982000,-83.84
1983000,-83.33
1984000,-85.38
1985000,-84.02
1986000,-84.38
1987000,-83.49
1988000,-84.3
1989000,-84.38
1990000,-83.33
1991000,-85.92
1992000,-83.33
1993000,-84.97
1994000,-83.58
1995000,-81.95
1996000,-79.79
1997000,-80.48
1998000,-80.36
1999000,-78.94
2000000,-78.18
2001000,-79.15
2002000,-78.75
2003000,-80.97
2004000,-81.67
2005000,-82.92
2006000,-82.09
2007000,-80.69
2008000,-84.26
2009000,-84.93
2010000,-84.64
2011000,-84.54
2012000,-83.89
2013000,-83.46
2014000,-83.21
2015000,-84.74
2016000,-84.74
2017000,-83.55
2018000,-83.12
2019000,-85.14
2020000,-84.35
2021000,-85.14
2022000,-84.54
2023000,-83.8
2024000,-83.64
2025000,-83.46
2026000,-85.04
2027000,-84.93
2028000,-84.17
2029000,-83.64
2030000,-84.74
2031000,-85.78
2032000,-84.35
2033000,-85.04
2034000,-85.04
2035000,-83.21
2036000,-84.64
2037000,-84.64
2038000,-84.64
2039000,-85.45
2040000,-83.99
2041000,-83.21
2042000,-84.17
2043000,-83.8
2044000,-84.93
2045000,-84.35
2046000,-84.54
2047000,-82.81
2048000,-84.26
2049000,-82.97
2050000,-85.04
2051000,-84.17
2052000,-84.74
2053000,-83.89
2054000,-85.14
2055000,-83.89
2056000,-85.14
2057000,-83.8
2058000,-83.89
2059000,-83.21
2060000,-84.93
2061000,-84.35
2062000,-83.46
2063000,-83.46
2064000,-84.26
2065000,-84.74
2066000,-85.14
2067000,-82.65
2068000,-85.04
2069000,-84.54
2070000,-84.54
2071000,-84.35
2072000,-83.64
2073000,-83.8
2074000,-83.93
2075000,-83.25
2076000,-83.93
2077000,-84.67
2078000,-84.58
2079000,-83.49
2080000,-84.2
2081000,-82.84
2082000,-84.58
2083000,-83.16
2084000,-83.58
2085000,-83.16
2086000,-81.81
2087000,-85.17
2088000,-84.67
2089000,-85.81
2090000,-83.92
2091000,-84.77
2092000,-84.02
2093000,-83.92
2094000,-82.23
2095000,-81.67
2096000,-81.67
2097000,-80.97
2098000,-79.46
2099000,-79.36
2100000,-79.57
2101000,-79.36
2102000,-78.84
2103000,-80.01
2104000,-80.72
2105000,-81.95
2106000,-83.25
2107000,-82.53
2108000,-84.3
2109000,-84.2
2110000,-83.92
2111000,-84.77
2112000,-84.67
2113000,-85.17
2114000,-83.92
2115000,-82.68
2116000,-84.67
2117000,-84.02
2118000,-83.92
2119000,-85.38
2120000,-82.84
2121000,-83.25
2122000,-85.17
2123000,-85.07
2124000,-84.67
2125000,-84.67
2126000,-84.2
2127000,-85.17
2128000,-85.49
2129000,-83.32
2130000,-83.49
2131000,-83.16
2132000,-83.16
2133000,-83.92
2134000,-85.17
2135000,-84.38
2136000,-84.67
2137000,-84.67
2138000,-83.32
2139000,-83.77
2140000,-84.7
2141000,-83.86
2142000,-83.51
2143000,-82.24
2144000,-85.85
2145000,-84.9
2146000,-83.43
2147000,-84.7
2148000,-84.23
2149000,-84.13
2150000,-82.93
2151000,-84.32
2152000,-84.23
2153000,-84.23
2154000,-85
2155000,-84.13
2156000,-84.7
2157000,-85
2158000,-85.31
2159000,-85.31
2160000,-84.61
2161000,-83.51
2162000,-84.32
2163000,-83.6
2164000,-83.6
2165000,-85.42
2166000,-85.42
2167000,-84.13
2168000,-85.52
2169000,-84.32
2170000,-85
2171000,-83.6
2172000,-82.54
2173000,-83.86
2174000,-84.13
2175000,-84.23
2176000,-84.23
2177000,-85.42
2178000,-84.32
2179000,-83.6
2180000,-84.23
2181000,-85.52
2182000,-83.86
2183000,-84.13
2184000,-83.86
2185000,-83.43
2186000,-85.1
2187000,-85.31
2188000,-85
2189000,-84.51
2190000,-83.95
2191000,-83.51
2192000,-82.93
2193000,-82.85
2194000,-83.09
2195000,-81.42
2196000,-81.74
2197000,-79.72
2198000,-80.17
2199000,-78.39
2200000,-78.54
2201000,-79.56
2202000,-79.88
2203000,-79.04
2204000,-80.96
2205000,-80.47
2206000,-83.23
2207000,-82.91
2208000,-83.15
2209000,-81.22
2210000,-84.76
2211000,-84.19
2212000,-84.76
2213000,-84.01
2214000,-84.57
2215000,-84.66
2216000,-85.58
2217000,-84.95
2218000,-84.76
2219000,-84.95
2220000,-83.66
2221000,-83.23
2222000,-83.91
2223000,-83.83
2224000,-84.19
2225000,-84.19
2226000,-85.37
2227000,-80.96
2228000,-83.91
2229000,-84.37
2230000,-84.76
2231000,-85.47
2232000,-83.91
2233000,-85.8
2234000,-83.83
2235000,-83.83
2236000,-83.83
2237000,-83.57
2238000,-84.01
2239000,-83.66
2240000,-83.83
2241000,-84.95
2242000,-83.23
2243000,-82.3
2244000,-85.91
2245000,-83.66
2246000,-85.58
2247000,-84.28
2248000,-82.99
2249000,-84.28
2250000,-84.37
2251000,-83.66
2252000,-85.16
2253000,-84.57
2254000,-84.19
2255000,-83.66
2256000,-84.76
2257000,-84.19
2258000,-83.91
2259000,-83.57
2260000,-84.95
2261000,-83.48
2262000,-84.19
2263000,-83.48
2264000,-82.37
2265000,-83.57
2266000,-84.76
2267000,-83.66
2268000,-83.91
2269000,-83.57
2270000,-84.37
2271000,-84.57
2272000,-83.72
2273000,-85.02
2274000,-83.72
2275000,-83.64
2276000,-84.73
2277000,-85.54
2278000,-82.9
2279000,-84.83
2280000,-84.73
2281000,-82.97
2282000,-83.21
2283000,-84.08
2284000,-84.08
2285000,-82.9
2286000,-83.72
2287000,-85.13
2288000,-84.44
2289000,-83.98
2290000,-84.73
2291000,-83.55
2292000,-84.83
2293000,-83.72
2294000,-83.21
2295000,-81.55
2296000,-81.28
2297000,-80.53
2298000,-80.29
2299000,-78.8
2300000,-80.06
2301000,-80.53
2302000,-79.62
2303000,-80.53
2304000,-81.28
2305000,-80.53
2306000,-83.55
2307000,-83.3
2308000,-82.9
2309000,-81.72
2310000,-82.29
2311000,-83.98
2312000,-84.35
2313000,-84.25
2314000,-83.3
2315000,-84.25
2316000,-83.64
2317000,-83.38
2318000,-84.25
2319000,-83.05
2320000,-84.35
2321000,-84.73
2322000,-84.73
2323000,-84.25
2324000,-85.13
2325000,-85.02
2326000,-83.72
2327000,-85.87
2328000,-84.83
2329000,-83.55
2330000,-85.02
2331000,-85.65
2332000,-82.29
2333000,-85.54
2334000,-84.35
2335000,-84.25
2336000,-84.08
2337000,-84.25
2338000,-83.38
2339000,-84.08
2340000,-83.98
2341000,-84.63
2342000,-84.44
2343000,-84.08
2344000,-85.02
2345000,-83.72
2346000,-85.13
2347000,-84.73
2348000,-83.38
2349000,-85.54
2350000,-85.22
2351000,-85.65
2352000,-84.44
2353000,-83.21
2354000,-84.25
2355000,-84.25
2356000,-84.73
2357000,-83.21
2358000,-83.64
2359000,-83.55
2360000,-85.17
2361000,-83.67
2362000,-85.17
2363000,-85.17
2364000,-85.48
2365000,-84.67
2366000,-84.29
2367000,-84.67
2368000,-84.67
2369000,-82.31
2370000,-85.59
2371000,-84.2
2372000,-85.59
2373000,-84.58
2374000,-84.38
2375000,-83.83
2376000,-85.92
2377000,-85.48
2378000,-84.77
2379000,-84.58
2380000,-85.92
2381000,-84.2
2382000,-84.38
2383000,-85.38
2384000,-84.58
2385000,-84.2
2386000,-84.2
2387000,-85.81
2388000,-84.58
2389000,-83.83
2390000,-83.92
2391000,-83.92
2392000,-84.2
2393000,-82.02
2394000,-83
2395000,-82.53
2396000,-81.66
2397000,-79.79
2398000,-80.36
2399000,-79.25
2400000,-78.94
2401000,-79.67
2402000,-80.12
2403000,-81.45
2404000,-81.77
2405000,-82.2
2406000,-82.88
2407000,-84.16
2408000,-81.98
2409000,-83.63
2410000,-83.12
2411000,-84.93
2412000,-84.16
2413000,-84.93
2414000,-83.8
2415000,-85.56
2416000,-85.34
2417000,-85.13
2418000,-84.54
2419000,-85.78
2420000,-84.16
2421000,-82.65
2422000,-83.89
2423000,-84.64
2424000,-84.54
2425000,-82.35
2426000,-83.89
2427000,-85.04
2428000,-84.93
2429000,-84.16
2430000,-86.35
2431000,-84.64
2432000,-84.74
2433000,-82.27
2434000,-86.35
2435000,-84.26
2436000,-84.54
2437000,-84.35
2438000,-84.93
2439000,-84.64
2440000,-83.89
2441000,-83.54
2442000,-84.93
2443000,-84.93
2444000,-83.63
2445000,-84.26
2446000,-83.89
2447000,-83.89
2448000,-85.13
2449000,-84.64
2450000,-84.88
2451000,-84.88
2452000,-85.29
2453000,-83.16
2454000,-84.29
2455000,-85.72
2456000,-84.29
2457000,-83.49
2458000,-85.29
2459000,-84.29
2460000,-84.49
2461000,-84.49
2462000,-82.22
2463000,-83.58
2464000,-85.94
2465000,-83.84
2466000,-85.5
2467000,-83.84
2468000,-84.29
2469000,-83.97
2470000,-84.91
2471000,-85.86
2472000,-84.24
2473000,-83.87
2474000,-83.52
2475000,-80.91
2476000,-85.54
2477000,-85.76
2478000,-83.61
2479000,-84.72
2480000,-84.52
2481000,-83.78
2482000,-83.97
2483000,-83.78
2484000,-83.52
2485000,-84.91
2486000,-83.97
2487000,-84.24
2488000,-85.11
2489000,-83.61
2490000,-84.33
2491000,-84.33
2492000,-85.01
2493000,-82.86
2494000,-82.86
2495000,-82.78
2496000,-81.43
2497000,-79.73
2498000,-79.95
2499000,-78.89
2500000,-79.19
2501000,-79.3
2502000,-80.42
2503000,-81.17
2504000,-82.03
2505000,-82.47
2506000,-82.62
2507000,-84.52
2508000,-83.87
2509000,-85.01
2510000,-83.61
2511000,-83.19
2512000,-83.27
2513000,-85.76
2514000,-85.86
2515000,-84.24
2516000,-82.86
2517000,-83.87
2518000,-83.97
2519000,-85.11
2520000,-83.1
2521000,-82.86
2522000,-84.33
2523000,-82.94
2524000,-84.24
2525000,-84.62
2526000,-84.14
2527000,-84.91
2528000,-83.61
2529000,-84.33
2530000,-84.33
2531000,-85.01
2532000,-85.11
2533000,-83.87
2534000,-84.62
2535000,-85.01
2536000,-83.44
2537000,-83.61
2538000,-82.78
2539000,-82.25
2540000,-82.78
2541000,-84.62
2542000,-84.52
2543000,-85.53
2544000,-84.33
2545000,-85.11
2546000,-84.33
2547000,-82.86
2548000,-85.53
2549000,-83.52
2550000,-82.32
2551000,-83.1
2552000,-82.25
2553000,-83.96
2554000,-83.61
2555000,-84.52
2556000,-84.33
2557000,-83.78
2558000,-83.96
2559000,-84.62
2560000,-84.62
2561000,-85.32
2562000,-84.91
2563000,-84.71
2564000,-84.24
2565000,-84.91
2566000,-83.78
2567000,-82.62
2568000,-85.11
2569000,-84.24
2570000,-84.14
2571000,-83.27
2572000,-84.91
2573000,-84.24
2574000,-84.62
2575000,-83.52
2576000,-84.24
2577000,-84.91
2578000,-85.43
2579000,-84.33
2580000,-85.11
2581000,-85.01
2582000,-83.87
2583000,-85.76
2584000,-85.32
2585000,-82.47
2586000,-84.33
2587000,-83.87
2588000,-85.43
2589000,-83.52
2590000,-85.32
2591000,-83.1
2592000,-85.01
2593000,-82.32
2594000,-83.27
2595000,-82.03
2596000,-80.18
2597000,-80.42
2598000,-80.18
2599000,-79.62
2600000,-79.51
2601000,-79.09
2602000,-80.42
2603000,-79.95
2604000,-80.79
2605000,-81.43
2606000,-81.96
2607000,-83.61
2608000,-83.78
2609000,-83.1
2610000,-85.11
2611000,-85.32
2612000,-84.33
2613000,-84.24
2614000,-83.27
2615000,-84.33
2616000,-81.89
2617000,-82.55
2618000,-84.14
2619000,-83.27
2620000,-82.25
2621000,-83.78
2622000,-85.32
2623000,-83.87
2624000,-83.52
2625000,-83.87
2626000,-83.19
2627000,-84.91
2628000,-84.71
2629000,-83.96
2630000,-84.71
2631000,-84.71
2632000,-84.91
2633000,-85.01
2634000,-84.91
2635000,-83.96
2636000,-84.91
2637000,-84.71
2638000,-85.43
2639000,-83.96
2640000,-85.53
2641000,-85.98
2642000,-84.62
2643000,-85.01
2644000,-84.52
2645000,-83.52
2646000,-83.19
2647000,-83.52
2648000,-84.71
2649000,-84.71
2650000,-84.62
2651000,-84.24
2652000,-85.53
2653000,-84.62
2654000,-85.43
2655000,-84.14
2656000,-84.91
2657000,-84.14
2658000,-84.52
2659000,-85.75
2660000,-83.43
2661000,-85.86
2662000,-83.87
2663000,-84.52
2664000,-82.94
2665000,-85.32
2666000,-83.1
2667000,-85.32
2668000,-84.52
2669000,-85.01
2670000,-85.01
2671000,-85.01
2672000,-84.71
2673000,-84.91
2674000,-84.33
2675000,-85.32
2676000,-84.91
2677000,-83.75
2678000,-82.83
2679000,-83.4
2680000,-84.87
2681000,-84.87
2682000,-85.08
2683000,-83.93
2684000,-84.58
2685000,-84.11
2686000,-84.29
2687000,-84.11
2688000,-83.75
2689000,-80.15
2690000,-84.87
2691000,-85.08
2692000,-84.11
2693000,-84.58
2694000,-82.59
2695000,-82.52
2696000,-81.93
2697000,-79.7
2698000,-80.15
2699000,-77.72
2700000,-78.66
2701000,-79.05
2702000,-79.48
2703000,-80.27
2704000,-80.51
2705000,-82
2706000,-81.4
2707000,-83.15
2708000,-86.29
2709000,-84.49
2710000,-84.49
2711000,-85.08
2712000,-83.07
2713000,-85.08
2714000,-84.11
2715000,-84.29
2716000,-84.58
2717000,-83.93
2718000,-84.68
2719000,-84.49
2720000,-84.87
2721000,-84.11
2722000,-84.49
2723000,-84.87
2724000,-83.75
2725000,-81.13
2726000,-84.58
2727000,-85.08
2728000,-84.49
2729000,-84.29
2730000,-83.93
2731000,-83.4
2732000,-85.72
2733000,-85.08
2734000,-83.74
2735000,-84.58
2736000,-83.93
2737000,-84.49
2738000,-84.98
2739000,-83.83
2740000,-83.4
2741000,-83.93
2742000,-83.15
2743000,-84.98
2744000,-83.15
2745000,-83.52
2746000,-82.94
2747000,-85.32
2748000,-85.53
2749000,-84.71
2750000,-83.78
2751000,-83.87
2752000,-86.44
2753000,-84.62
2754000,-84.62
2755000,-84.24
2756000,-84.14
2757000,-84.24
2758000,-83.96
2759000,-83.96
2760000,-85.97
2761000,-85.43
2762000,-85.11
2763000,-84.71
2764000,-83.43
2765000,-84.52
2766000,-83.43
2767000,-83.61
2768000,-84.14
2769000,-84.52
2770000,-84.32
2771000,-85.43
2772000,-85.01
2773000,-85.32
2774000,-85.11
2775000,-84.24
2776000,-83.43
2777000,-83.61
2778000,-84.24
2779000,-85.86
2780000,-83.52
2781000,-85.11
2782000,-84.71
2783000,-85.75
2784000,-84.91
2785000,-84.32
2786000,-84.71
2787000,-85.53
2788000,-83.52
2789000,-85.75
2790000,-85.43
2791000,-84.32
2792000,-85.01
2793000,-84.24
2794000,-83.43
2795000,-81.96
2796000,-81.96
2797000,-80.3
2798000,-79.09
2799000,-80.06
2800000,-80.06
2801000,-80.3
2802000,-79.4
2803000,-80.42
2804000,-79.62
2805000,-81.89
2806000,-82.62
2807000,-82.78
2808000,-84.62
2809000,-85.11
2810000,-84.32
2811000,-85.53
2812000,-82.62
2813000,-84.91
2814000,-84.62
2815000,-85.86
2816000,-85.11
2817000,-85.97
2818000,-84.71
2819000,-83.87
2820000,-83.87
2821000,-83.61
2822000,-83.87
2823000,-84.52
2824000,-85.01
2825000,-82.62
2826000,-83.43
2827000,-84.62
2828000,-84.24
2829000,-84.52
2830000,-84.14
2831000,-84.52
2832000,-84.24
2833000,-85.32
2834000,-85.43
2835000,-85.11
2836000,-83.87
2837000,-85.01
2838000,-85.01
2839000,-84.71
2840000,-84.71
2841000,-85.53
2842000,-85.01
2843000,-86.2
2844000,-85.32
2845000,-83.87
2846000,-83.96
2847000,-83.27
2848000,-84.91
2849000,-85.32
2850000,-85.02
2851000,-83.63
2852000,-85.54
2853000,-85.54
2854000,-83.72
2855000,-84.25
2856000,-85.54
2857000,-84.63
2858000,-83.89
2859000,-83.89
2860000,-84.35
2861000,-84.35
2862000,-84.43
2863000,-85.22
2864000,-83.98
2865000,-84.82
2866000,-84.73
2867000,-82.07
2868000,-85.86
2869000,-84.43
2870000,-84.73
2871000,-85.43
2872000,-84.07
2873000,-84.35
2874000,-84.07
2875000,-85.02
2876000,-85.12
2877000,-85.02
2878000,-84.35
2879000,-83.98
2880000,-84.07
2881000,-84.63
2882000,-83.72
2883000,-82.58
2884000,-85.02
2885000,-84.72
2886000,-85.86
2887000,-84.63
2888000,-83.38
2889000,-82.97
2890000,-83.98
2891000,-85.02
2892000,-85.64
2893000,-83.05
2894000,-82.97
2895000,-81.54
2896000,-81.15
2897000,-80.06
2898000,-80.29
2899000,-79.62
2900000,-80.77
2901000,-79.3
2902000,-80.06
2903000,-80.41
2904000,-81.54
2905000,-82.36
2906000,-83.05
2907000,-83.38
2908000,-84.25
2909000,-84.63
2910000,-84.43
2911000,-84.43
2912000,-83.54
2913000,-84.63
2914000,-84.25
2915000,-84.43
2916000,-85.02
2917000,-85.54
2918000,-85.02
2919000,-84.63
2920000,-83.89
2921000,-85.12
2922000,-85.12
2923000,-84.82
2924000,-85.02
2925000,-84.82
2926000,-84.35
2927000,-84.82
2928000,-85.02
2929000,-85.64
2930000,-85.43
2931000,-84.63
2932000,-85.64
2933000,-85.02
2934000,-84.72
2935000,-83.21
2936000,-83.89
2937000,-84.72
2938000,-84.72
2939000,-83.97
2940000,-85.43
2941000,-85.22
2942000,-85.54
2943000,-84.72
2944000,-84.35
2945000,-83.63
2946000,-83.63
2947000,-85.97
2948000,-84.63
2949000,-85.02
2950000,-85.86
2951000,-85.22
2952000,-85.12
2953000,-84.63
2954000,-85.64
2955000,-83.89
2956000,-84.82
2957000,-85.12
2958000,-84.63
2959000,-85.12
2960000,-83.97
2961000,-85.22
2962000,-84.35
2963000,-85.02
2964000,-84.82
2965000,-84.82
2966000,-85.22
2967000,-83.97
2968000,-85.02
2969000,-85.97
2970000,-85.54
2971000,-84.43
2972000,-85.22
2973000,-84.82
2974000,-85.22
2975000,-86.55
2976000,-85.12
2977000,-84.34
2978000,-85.12
2979000,-83.97
2980000,-84.63
2981000,-85.43
2982000,-83.37
2983000,-84.63
2984000,-84.25
2985000,-85.22
2986000,-84.43
2987000,-83.63
2988000,-83.72
2989000,-84.07
2990000,-85.54
2991000,-84.07
2992000,-84.82
2993000,-84.63
2994000,-82.58
2995000,-82.28
2996000,-80.77
2997000,-80.65
2998000,-79.72
2999000,-79.51
3000000,-80.29
3001000,-80.06
3002000,-80.06
3003000,-80.29
3004000,-81.54
3005000,-81.54
3006000,-82.58
3007000,-82.58
3008000,-84.82
3009000,-84.25
3010000,-84.07
3011000,-85.86
3012000,-85.54
3013000,-82.07
3014000,-84.43
3015000,-84.72
3016000,-85.54
3017000,-83.72
3018000,-84.72
3019000,-83.97
3020000,-85.01
3021000,-84.43
3022000,-83.3
3023000,-83.54
3024000,-83.05
3025000,-84.43
3026000,-86.55
3027000,-83.89
3028000,-85.22
3029000,-83.72
3030000,-85.43
3031000,-83.72
3032000,-84.34
3033000,-85.01
3034000,-83.89
3035000,-84.07
3036000,-84.43
3037000,-84.82
3038000,-85.01
3039000,-83.54
3040000,-85.86
3041000,-85.12
3042000,-83.21
3043000,-84.34
3044000,-84.63
3045000,-83.37
3046000,-83.37
3047000,-85.53
3048000,-85.53
3049000,-85.43
3050000,-84.72
3051000,-85.12
3052000,-84.25
3053000,-85.97
3054000,-83.37
3055000,-83.97
3056000,-84.82
3057000,-85.22
3058000,-85.53
3059000,-85.22
3060000,-84.72
3061000,-84.82
3062000,-84.43
3063000,-84.63
3064000,-84.82
3065000,-85.22
3066000,-84.43
3067000,-85.53
3068000,-84.72
3069000,-86.43
3070000,-85.53
3071000,-84.07
3072000,-84.07
3073000,-85.43
3074000,-83.89
3075000,-85.01
3076000,-85.53
3077000,-84.25
3078000,-86.08
3079000,-81.79
3080000,-85.22
3081000,-84.21
3082000,-83.17
3083000,-82.55
3084000,-84.59
3085000,-84.31
3086000,-83.68
3087000,-84.98
3088000,-85.4
3089000,-83.6
3090000,-84.4
3091000,-83.85
3092000,-84.31
3093000,-83.26
3094000,-81.37
3095000,-81.51
3096000,-81.37
3097000,-79.8
3098000,-80.25
3099000,-79.37
3100000,-79.58
3101000,-79.58
3102000,-79.48
3103000,-81.12
3104000,-81.37
3105000,-81.75
3106000,-81.75
3107000,-83.94
3108000,-85.09
3109000,-85.93
3110000,-86.05
3111000,-85.18
3112000,-85.09
3113000,-84.79
3114000,-85.09
3115000,-84.69
3116000,-85.5
3117000,-84.59
3118000,-83.94
3119000,-82.93
3120000,-83.26
3121000,-85.83
3122000,-85.61
3123000,-84.21
3124000,-84.59
3125000,-84.59
3126000,-85.09
3127000,-84.69
3128000,-83.34
3129000,-84.4
3130000,-84.98
3131000,-84.79
3132000,-84.69
3133000,-84.69
3134000,-85.09
3135000,-83.68
3136000,-85.4
3137000,-83.94
3138000,-84.69
3139000,-85.61
3140000,-85.61
3141000,-85.09
3142000,-86.05
3143000,-84.69
3144000,-84.04
3145000,-84.4
3146000,-84.21
3147000,-83.72
3148000,-85.22
3149000,-85.01
3150000,-84.96
3151000,-85.48
3152000,-84.96
3153000,-83.15
3154000,-84.19
3155000,-85.48
3156000,-85.16
3157000,-83.24
3158000,-85.91
3159000,-84.96
3160000,-84.67
3161000,-84.29
3162000,-85.06
3163000,-86.02
3164000,-85.16
3165000,-84.57
3166000,-84.29
3167000,-84.29
3168000,-83.92
3169000,-85.06
3170000,-85.06
3171000,-85.37
3172000,-85.16
3173000,-85.91
3174000,-85.8
3175000,-84.57
3176000,-86.02
3177000,-86.49
3178000,-84.19
3179000,-85.8
3180000,-85.48
3181000,-84.67
3182000,-86.49
3183000,-84.29
3184000,-83.83
3185000,-83.32
3186000,-82.83
3187000,-84.01
3188000,-85.91
3189000,-84.01
3190000,-83.92
3191000,-85.91
3192000,-85.48
3193000,-84.37
3194000,-82.52
3195000,-81.48
3196000,-80.96
3197000,-80.71
3198000,-80.23
3199000,-80.35
3200000,-79.67
3201000,-80.23
3202000,-80.23
3203000,-81.22
3204000,-82.01
3205000,-82.08
3206000,-82.83
3207000,-83.92
3208000,-82.67
3209000,-84.67
3210000,-84.29
3211000,-85.91
3212000,-85.48
3213000,-84.57
3214000,-82.67
3215000,-83.15
3216000,-83.66
3217000,-83.92
3218000,-83.66
3219000,-85.8
3220000,-85.37
3221000,-83.15
3222000,-84.19
3223000,-84.67
3224000,-83.57
3225000,-84.67
3226000,-84.96
3227000,-84.29
3228000,-84.19
3229000,-84.37
3230000,-83.83
3231000,-85.8
3232000,-85.91
3233000,-85.16
3234000,-85.48
3235000,-85.8
3236000,-85.06
3237000,-86.25
3238000,-85.06
3239000,-83.66
3240000,-84.67
3241000,-85.37
3242000,-83.83
3243000,-85.58
3244000,-86.25
3245000,-83.83
3246000,-83.92
3247000,-84.37
3248000,-84.19
3249000,-84.96
3250000,-83.83
3251000,-85.8
3252000,-85.48
3253000,-84.19
3254000,-85.58
3255000,-84.76
3256000,-85.91
3257000,-85.16
3258000,-84.19
3259000,-85.16
3260000,-84.57
3261000,-85.48
3262000,-85.58
3263000,-85.48
3264000,-82.83
3265000,-85.16
3266000,-84.37
3267000,-85.8
3268000,-84.96
3269000,-84.57
3270000,-84.37
3271000,-83.83
3272000,-85.48
3273000,-82.83
3274000,-84.96
3275000,-85.48
3276000,-84.57
3277000,-84.57
3278000,-83.25
3279000,-83.95
3280000,-84.31
3281000,-84.22
3282000,-84.7
3283000,-84.7
3284000,-85.74
3285000,-85
3286000,-85.41
3287000,-83.59
3288000,-84.6
3289000,-85
3290000,-85.3
3291000,-83.95
3292000,-84.6
3293000,-84.31
3294000,-83.17
3295000,-82.84
3296000,-80.89
3297000,-80.77
3298000,-79.93
3299000,-79.49
3300000,-80.05
3301000,-79.6
3302000,-78.77
3303000,-80.4
3304000,-82.61
3305000,-83.08
3306000,-82.92
3307000,-84.6
3308000,-84.89
3309000,-84.6
3310000,-84.7
3311000,-85
3312000,-84.22
3313000,-85.09
3314000,-84.12
3315000,-85.3
3316000,-85.52
3317000,-83.85
3318000,-84.12
3319000,-83.76
3320000,-84.7
3321000,-85.96
3322000,-85.09
3323000,-85.3
3324000,-84.12
3325000,-84.12
3326000,-85.41
3327000,-84.31
3328000,-83.76
3329000,-84.12
3330000,-84.89
3331000,-85.41
3332000,-86.19
3333000,-84.69
3334000,-84.12
3335000,-85.74
3336000,-84.5
3337000,-83.76
3338000,-85.09
3339000,-85.3
3340000,-84.69
3341000,-84.69
3342000,-83.25
3343000,-84.99
3344000,-84.99
3345000,-85.77
3346000,-84.92
3347000,-84.25
3348000,-84.92
3349000,-83.79
3350000,-85.03
3351000,-84.63
3352000,-85.87
3353000,-85.44
3354000,-85.55
3355000,-83.45
3356000,-86.22
3357000,-86.22
3358000,-84.92
3359000,-83.11
3360000,-84.92
3361000,-83.28
3362000,-85.34
3363000,-85.44
3364000,-85.55
3365000,-85.87
3366000,-85.03
3367000,-85.44
3368000,-85.34
3369000,-83.88
3370000,-86.22
3371000,-85.99
3372000,-85.99
3373000,-85.12
3374000,-83.45
3375000,-84.92
3376000,-84.53
3377000,-84.73
3378000,-85.03
3379000,-84.15
3380000,-85.12
3381000,-84.25
3382000,-84.34
3383000,-85.77
3384000,-85.99
3385000,-85.03
3386000,-85.34
3387000,-85.44
3388000,-83.63
3389000,-85.55
3390000,-85.77
3391000,-85.77
3392000,-84.15
3393000,-82.34
3394000,-83.63
3395000,-82.05
3396000,-81.69
3397000,-80.68
3398000,-79
3399000,-78.9
3400000,-79.52
3401000,-79.42
3402000,-79.74
3403000,-80.56
3404000,-80.32
3405000,-82.8
3406000,-83.98
3407000,-83.28
3408000,-85.03
3409000,-85.44
3410000,-85.12
3411000,-85.03
3412000,-84.96
3413000,-85.58
3414000,-86.37
3415000,-84.28
3416000,-85.58
3417000,-84.57
3418000,-83.15
3419000,-84.19
3420000,-85.48
3421000,-84.37
3422000,-84.19
3423000,-85.06
3424000,-86.25
3425000,-86.37
3426000,-84.57
3427000,-84.95
3428000,-85.06
3429000,-85.37
3430000,-85.58
3431000,-84.37
3432000,-84.57
3433000,-82.08
3434000,-85.16
3435000,-83.57
3436000,-84.95
3437000,-84.57
3438000,-86.02
3439000,-84.95
3440000,-85.16
3441000,-84.76
3442000,-83.57
3443000,-84.66
3444000,-84.37
3445000,-84.95
3446000,-84.76
3447000,-85.58
3448000,-84.57
3449000,-85.16
3450000,-84.61
3451000,-84.13
3452000,-84.32
3453000,-83.09
3454000,-84.51
3455000,-84.9
3456000,-82.86
3457000,-83.52
3458000,-86.44
3459000,-84.71
3460000,-85.85
3461000,-84.13
3462000,-84.61
3463000,-84.23
3464000,-85.75
3465000,-85.85
3466000,-84.61
3467000,-86.44
3468000,-85.01
3469000,-83.96
3470000,-84.61
3471000,-85.85
3472000,-85.1
3473000,-83.26
3474000,-82.78
3475000,-85.53
3476000,-83.86
3477000,-85.32
3478000,-84.9
3479000,-84.61
3480000,-83.77
3481000,-83.96
3482000,-85.53
3483000,-85.75
3484000,-81.6
3485000,-84.9
3486000,-84.13
3487000,-84.9
3488000,-83.96
3489000,-85.85
3490000,-84.13
3491000,-83.6
3492000,-84.13
3493000,-83.43
3494000,-82.03
3495000,-80.54
3496000,-81.6
3497000,-80.41
3498000,-79.94
3499000,-79.08
3500000,-79.94
3501000,-79.72
3502000,-80.66
3503000,-80.17
3504000,-81.43
3505000,-81.74
3506000,-83.09
3507000,-82.62
3508000,-84.51
3509000,-85.53
3510000,-85.42
3511000,-84.51
3512000,-85.75
3513000,-85.53
3514000,-85.1
3515000,-84.71
3516000,-84.71
3517000,-85.53
3518000,-83.09
3519000,-85.42
3520000,-84.9
3521000,-85.01
3522000,-84.23
3523000,-85.32
3524000,-81.96
3525000,-84.71
3526000,-84.9
3527000,-84.13
3528000,-84.51
3529000,-82.62
3530000,-84.51
3531000,-85.32
3532000,-84.23
3533000,-83.96
3534000,-85.97
3535000,-84.13
3536000,-85.1
3537000,-85.75
3538000,-86.2
3539000,-85.42
3540000,-84.9
3541000,-83.26
3542000,-83.96
3543000,-85.01
3544000,-84.32
3545000,-84.32
3546000,-85.85
3547000,-85.32
3548000,-84.71
3549000,-85.32
3550000,-85.75
3551000,-83.77
3552000,-85.97
3553000,-83.43
3554000,-84.51
3555000,-86.2
3556000,-84.9
3557000,-84.51
3558000,-84.23
3559000,-85.42
3560000,-84.71
3561000,-85.42
3562000,-84.51
3563000,-85.42
3564000,-83.52
3565000,-85.1
3566000,-85.01
3567000,-85.01
3568000,-84.32
3569000,-84.61
3570000,-85.75
3571000,-84.9
3572000,-86.32
3573000,-85.1
3574000,-85.85
3575000,-83.96
3576000,-84.9
3577000,-85.75
3578000,-84.13
3579000,-84.9
3580000,-84.61
3581000,-84.51
3582000,-83.6
3583000,-85.75
3584000,-85.53
3585000,-84.32
3586000,-85.85
3587000,-85.31
3588000,-85.97
3589000,-84.23
3590000,-85.42
3591000,-83.18
3592000,-85.01
3593000,-82.77
3594000,-81.88
3595000,-82.55
3596000,-81.67
3597000,-80.53
3598000,-79.5
3599000,-79.61
3600000,-80.17
3601000,-79.08
3602000,-81.16
3603000,-81.43
3604000,-81.43
3605000,-83.43
3606000,-82.77
3607000,-83.96
3608000,-83.86
3609000,-85.01
3610000,-85.75
3611000,-85.97
3612000,-82.85
3613000,-84.71
3614000,-84.23
3615000,-82.85
3616000,-85.97
3617000,-84.45
3618000,-84.25
3619000,-83.54
3620000,-84.94
3621000,-83.45
3622000,-85.04
3623000,-82.4
3624000,-85.68
3625000,-85.04
3626000,-85.35
3627000,-84.94
3628000,-85.9
3629000,-84.54
3630000,-85.04
3631000,-84.45
3632000,-84.54
3633000,-84.25
3634000,-86.13
3635000,-86.13
3636000,-84.54
3637000,-85.79
3638000,-84.16
3639000,-82.1
3640000,-85.25
3641000,-84.94
3642000,-84.94
3643000,-84.16
3644000,-85.04
3645000,-84.25
3646000,-84.83
3647000,-85.79
3648000,-85.35
3649000,-85.9
3650000,-84.94
3651000,-84.07
3652000,-86.74
3653000,-85.46
3654000,-85.9
3655000,-83.79
3656000,-85.25
3657000,-85.04
3658000,-85.68
3659000,-83.54
3660000,-84.64
3661000,-85.35
3662000,-85.04
3663000,-85.9
3664000,-85.35
3665000,-83.54
3666000,-85.46
3667000,-86.13
3668000,-84.94
3669000,-83.79
3670000,-83.7
3671000,-84.64
3672000,-84.83
3673000,-85.79
3674000,-84.83
3675000,-83.89
3676000,-84.44
3677000,-85.35
3678000,-84.25
3679000,-85.35
3680000,-84.44
3681000,-84.07
3682000,-84.83
3683000,-83.11
3684000,-85.04
3685000,-86.32
3686000,-86.2
3687000,-84.61
3688000,-84.51
3689000,-85.1
3690000,-82.93
3691000,-85.85
3692000,-84.51
3693000,-81.42
3694000,-83.51
3695000,-83.43
3696000,-81.42
3697000,-80.66
3698000,-80.17
3699000,-79.83
3700000,-79.72
3701000,-79.94
3702000,-79.72
3703000,-81.42
3704000,-81.04
3705000,-82.85
3706000,-82.85
3707000,-83.86
3708000,-83.86
3709000,-85.75
3710000,-85.53
3711000,-85.01
3712000,-85.85
3713000,-85.85
3714000,-86.2
3715000,-85.75
3716000,-85.31
3717000,-84.51
3718000,-84.71
3719000,-85.75
3720000,-83.51
3721000,-84.61
3722000,-85.1
3723000,-84.13
3724000,-84.32
3725000,-85.53
3726000,-86.8
3727000,-85.1
3728000,-84.51
3729000,-84.71
3730000,-85.31
3731000,-87.18
3732000,-85.75
3733000,-84.71
3734000,-85.31
3735000,-83.96
3736000,-84.71
3737000,-82.85
3738000,-85.42
3739000,-83.18
3740000,-84.51
3741000,-83.77
3742000,-86.2
3743000,-85.42
3744000,-85.53
3745000,-84.51
3746000,-85.75
3747000,-84.61
3748000,-84.61
3749000,-85
3750000,-83.96
3751000,-83.86
3752000,-85.1
3753000,-85.31
3754000,-82.31
3755000,-84.51
3756000,-83.96
3757000,-84.61
3758000,-84.61
3759000,-86.32
3760000,-85.42
3761000,-83.26
3762000,-83.43
3763000,-84.13
3764000,-83.51
3765000,-85.85
3766000,-84.51
3767000,-85.75
3768000,-83.77
3769000,-84.61
3770000,-85.1
3771000,-86.32
3772000,-85.1
3773000,-83.96
3774000,-85.42
3775000,-85
3776000,-85.31
3777000,-83.26
3778000,-85.1
3779000,-85
3780000,-84.13
3781000,-84.23
3782000,-82.16
3783000,-85.31
3784000,-85.75
3785000,-84.51
3786000,-85.75
3787000,-85
3788000,-83.86
3789000,-84.7
3790000,-85.75
3791000,-85.1
3792000,-84.9
3793000,-84.23
3794000,-84.13
3795000,-81.29
3796000,-80.9
3797000,-80.17
3798000,-80.9
3799000,-79.83
3800000,-78.68
3801000,-78.98
3802000,-79.5
3803000,-80.17
3804000,-81.42
3805000,-82.46
3806000,-83.77
3807000,-83.6
3808000,-83.18
3809000,-83.77
3810000,-85.31
3811000,-83.95
3812000,-85.85
3813000,-83.95
3814000,-85.1
3815000,-84.51
3816000,-85.97
3817000,-85.42
3818000,-84.51
3819000,-86.19
3820000,-85.85
3821000,-85.42
3822000,-84.61
3823000,-86.68
3824000,-84.51
3825000,-85.75
3826000,-85.31
3827000,-83.43
3828000,-85.31
3829000,-84.7
3830000,-82.93
3831000,-84.7
3832000,-85.52
3833000,-85
3834000,-86.19
3835000,-83.51
3836000,-84.7
3837000,-85.42
3838000,-84.7
3839000,-85.31
3840000,-85.1
3841000,-83.95
3842000,-85.31
3843000,-84.61
3844000,-85.52
3845000,-85
3846000,-85.31
3847000,-83.6
3848000,-84.9
3849000,-84.61
3850000,-85.85
3851000,-85.74
3852000,-84.7
3853000,-85.42
3854000,-84.32
3855000,-85.1
3856000,-84.61
3857000,-85.1
3858000,-83.43
3859000,-84.9
3860000,-85.74
3861000,-83.77
3862000,-83.77
3863000,-85.85
3864000,-84.61
3865000,-85
3866000,-85.52
3867000,-85.1
3868000,-84.61
3869000,-85
3870000,-84.13
3871000,-84.9
3872000,-83.43
3873000,-82.93
3874000,-85.85
3875000,-84.32
3876000,-85.97
3877000,-85.1
3878000,-84.51
3879000,-84.7
3880000,-84.9
3881000,-85
3882000,-85.52
3883000,-85.1
3884000,-84.32
3885000,-85
3886000,-86.43
3887000,-85.31
3888000,-84.9
3889000,-83.95
3890000,-85.85
3891000,-85
3892000,-84.64
3893000,-82.48
3894000,-83.36
3895000,-81.82
3896000,-82.18
3897000,-80.34
3898000,-79.76
3899000,-79.87
3900000,-80.47
3901000,-79.65
3902000,-80.1
3903000,-81.09
3904000,-81.36
3905000,-83.45
3906000,-83.79
3907000,-82.71
3908000,-83.11
3909000,-85.25
3910000,-84.44
3911000,-84.16
3912000,-86.61
3913000,-85.25
3914000,-84.54
3915000,-84.44
3916000,-84.25
3917000,-84.94
3918000,-85.03
3919000,-84.64
3920000,-84.64
3921000,-85.78
3922000,-85.68
3923000,-84.06
3924000,-85.46
3925000,-83.79
3926000,-83.45
3927000,-83.79
3928000,-85.46
3929000,-85.68
3930000,-85.78
3931000,-84.16
3932000,-83.45
3933000,-84.54
3934000,-82.78
3935000,-83.7
3936000,-82.55
3937000,-84.54
3938000,-84.54
3939000,-83.02
3940000,-84.83
3941000,-85.35
3942000,-85.25
3943000,-85.25
3944000,-84.44
3945000,-84.54
3946000,-83.45
3947000,-84.06
3948000,-85.78
3949000,-83.7
3950000,-86.13
3951000,-86.25
3952000,-85.35
3953000,-85.03
3954000,-84.16
3955000,-86.13
3956000,-84.54
3957000,-84.94
3958000,-83.11
3959000,-84.44
3960000,-85.03
3961000,-85.42
3962000,-84.61
3963000,-85.1
3964000,-84.7
3965000,-85
3966000,-85.52
3967000,-84.51
3968000,-85.85
3969000,-84.32
3970000,-85.31
3971000,-86.19
3972000,-85.52
3973000,-84.61
3974000,-84.61
3975000,-86.43
3976000,-83.18
3977000,-85.96
3978000,-85.85
3979000,-85.85
3980000,-82.31
3981000,-85.42
3982000,-85.1
3983000,-85.52
3984000,-83.09
3985000,-86.19
3986000,-85.74
3987000,-85.31
3988000,-83.6
3989000,-85
3990000,-85
3991000,-84.32
3992000,-83.42
3993000,-83.51
3994000,-83.95
3995000,-82.31
3996000,-81.29
3997000,-79.08
3998000,-80.41
3999000,-80.06
4000000,-79.5
4001000,-79.5
4002000,-80.17
4003000,-80.53
4004000,-81.16
4005000,-82.61
4006000,-83.51
4007000,-83.26
4008000,-84.31
4009000,-85.1
4010000,-84.61
4011000,-83.95
4012000,-84.31
4013000,-86.19
4014000,-85.1
4015000,-84.7
4016000,-85.74
4017000,-86.32
4018000,-85.42
4019000,-85
4020000,-84.23
4021000,-83.95
4022000,-84.7
4023000,-83.86
4024000,-86.43
4025000,-84.31
4026000,-85.42
4027000,-85
4028000,-85.31
4029000,-84.61
4030000,-84.83
4031000,-84.83
4032000,-86.74
4033000,-85.68
4034000,-84.83
4035000,-84.94
4036000,-85.35
4037000,-83.19
4038000,-83.89
4039000,-85.35
4040000,-84.94
4041000,-85.68
4042000,-86.13
4043000,-84.83
4044000,-85.24
4045000,-85.03
4046000,-85.03
4047000,-85.35
4048000,-85.78
4049000,-85.24
4050000,-83.79
4051000,-84.54
4052000,-85.68
4053000,-85.35
4054000,-85.68
4055000,-85.35
4056000,-84.06
4057000,-83.89
4058000,-83.79
4059000,-84.83
4060000,-85.78
4061000,-84.06
4062000,-83.89
4063000,-85.9
4064000,-85.03
4065000,-84.94
4066000,-84.94
4067000,-84.16
4068000,-84.25
4069000,-83.36
4070000,-84.64
4071000,-84.64
4072000,-84.94
4073000,-82.48
4074000,-85.24
4075000,-84.44
4076000,-84.44
4077000,-86.13
4078000,-85.68
4079000,-85.68
4080000,-85.05
4081000,-84.94
4082000,-83.47
4083000,-84.75
4084000,-85.79
4085000,-84.75
4086000,-83.47
4087000,-84.94
4088000,-83.3
4089000,-85.14
4090000,-85.14
4091000,-85.35
4092000,-85.05
4093000,-85.46
4094000,-83.9
4095000,-83.13
4096000,-81.64
4097000,-80.82
4098000,-79.54
4099000,-78.33
4100000,-79.12
4101000,-80.1
4102000,-80.21
4103000,-79.87
4104000,-81.46
4105000,-82.89
4106000,-83.47
4107000,-82.89
4108000,-85.79
4109000,-85.14
4110000,-85.46
4111000,-85.35
4112000,-85.57
4113000,-86.72
4114000,-85.79
4115000,-85.05
4116000,-85.14
4117000,-85.57
4118000,-85.46
4119000,-84.94
4120000,-85.57
4121000,-85.89
4122000,-84.17
4123000,-83.9
4124000,-84.65
4125000,-85.14
4126000,-85.79
4127000,-85.79
4128000,-85.14
4129000,-84.94
4130000,-84.36
4131000,-85.35
4132000,-84.27
4133000,-84.55
4134000,-83.22
4135000,-84
4136000,-85.79
4137000,-86.36
4138000,-84.75
4139000,-84.36
4140000,-85.57
4141000,-86.24
4142000,-84.94
4143000,-83.64
4144000,-83.81
4145000,-83.3
4146000,-85.14
4147000,-86.01
4148000,-84.94
4149000,-84.36
4150000,-84.65
4151000,-83.9
4152000,-84.75
4153000,-85.46
4154000,-84.75
4155000,-84.36
4156000,-83.9
4157000,-85.04
4158000,-84.94
4159000,-83.9
4160000,-83.9
4161000,-85.79
4162000,-85.57
4163000,-85.57
4164000,-85.39
4165000,-83.93
4166000,-85.18
4167000,-84.58
4168000,-83.93
4169000,-85.92
4170000,-84.78
4171000,-85.18
4172000,-84.78
4173000,-85.39
4174000,-85.18
4175000,-85.49
4176000,-85.08
4177000,-85.49
4178000,-85.18
4179000,-83.33
4180000,-86.45
4181000,-85.98
4182000,-85.02
4183000,-85.98
4184000,-85.33
4185000,-84.72
4186000,-83.28
4187000,-86.34
4188000,-85.87
4189000,-85.02
4190000,-86.7
4191000,-85.76
4192000,-83.44
4193000,-83.28
4194000,-83.87
4195000,-83.2
4196000,-80.67
4197000,-81.44
4198000,-80.07
4199000,-79.31
4200000,-79.74
4201000,-79.09
4202000,-79.62
4203000,-80.55
4204000,-81.44
4205000,-82.33
4206000,-83.11
4207000,-83.44
4208000,-84.72
4209000,-85.12
4210000,-85.54
4211000,-84.92
4212000,-86.45
4213000,-85.02
4214000,-85.54
4215000,-84.62
4216000,-84.53
4217000,-84.62
4218000,-86.7
4219000,-84.62
4220000,-85.44
4221000,-86.21
4222000,-85.33
4223000,-84.62
4224000,-85.76
4225000,-84.72
4226000,-83.97
4227000,-85.33
4228000,-85.02
4229000,-83.87
4230000,-84.88
4231000,-84.11
4232000,-85.73
4233000,-85.08
4234000,-84.59
4235000,-85.95
4236000,-85.51
4237000,-84.69
4238000,-86.42
4239000,-84.59
4240000,-85.83
4241000,-85.83
4242000,-84.69
4243000,-84.99
4244000,-86.66
4245000,-85.3
4246000,-84.59
4247000,-85.73
4248000,-86.18
4249000,-85.08
4250000,-84.88
4251000,-83.84
4252000,-83.75
4253000,-86.18
4254000,-84.3
4255000,-83.75
4256000,-85.3
4257000,-85.73
4258000,-85.51
4259000,-83.94
4260000,-86.42
4261000,-85.73
4262000,-85.4
4263000,-87.68
4264000,-85.83
4265000,-84.11
4266000,-84.99
4267000,-85.95
4268000,-85.51
4269000,-84.99
4270000,-85.08
4271000,-86.3
4272000,-85.4
4273000,-86.3
4274000,-85.08
4275000,-86.66
4276000,-85.73
4277000,-85.95
4278000,-86.3
4279000,-85.3
4280000,-86.66
4281000,-84.49
4282000,-85.51
4283000,-85.73
4284000,-85.4
4285000,-86.3
4286000,-85.83
4287000,-85.08
4288000,-84.3
4289000,-85.3
4290000,-86.42
4291000,-83.58
4292000,-85.51
4293000,-84.21
4294000,-83.24
4295000,-83.07
4296000,-82.63
4297000,-80.8
4298000,-80.92
4299000,-79.74
4300000,-79.31
4301000,-79.74
4302000,-79.31
4303000,-80.67
4304000,-82.33
4305000,-82.18
4306000,-83.27
4307000,-84.91
4308000,-84.72
4309000,-85.98
4310000,-85.54
4311000,-86.45
4312000,-86.21
4313000,-87.2
4314000,-85.87
4315000,-85.54
4316000,-85.43
4317000,-85.43
4318000,-85.87
4319000,-85.12
4320000,-85.43
4321000,-85.33
4322000,-84.72
4323000,-85.76
4324000,-85.02
4325000,-85.12
4326000,-85.54
4327000,-84.72
4328000,-82.63
4329000,-85.43
4330000,-83.87
4331000,-85.98
4332000,-86.21
4333000,-86.7
4334000,-85.87
4335000,-84.53
4336000,-83.87
4337000,-85.33
4338000,-84.72
4339000,-85.98
4340000,-84.91
4341000,-85.33
4342000,-86.21
4343000,-84.15
4344000,-85.33
4345000,-86.82
4346000,-85.43
4347000,-85.87
4348000,-85.54
4349000,-85.76
4350000,-85.02
4351000,-85.33
4352000,-83.97
4353000,-85.02
4354000,-83.79
4355000,-85.43
4356000,-86.33
4357000,-85.54
4358000,-85.87
4359000,-84.15
4360000,-85.12
4361000,-82.79
4362000,-85.33
4363000,-85.98
4364000,-85.98
4365000,-85.98
4366000,-85.43
4367000,-85.43
4368000,-85.12
4369000,-85.54
4370000,-85.02
4371000,-86.94
4372000,-84.33
4373000,-85.76
4374000,-84.91
4375000,-86.21
4376000,-83.97
4377000,-85.76
4378000,-84.24
4379000,-84.72
4380000,-84.62
4381000,-85.76
4382000,-85.98
4383000,-86.7
4384000,-85.98
4385000,-85.76
4386000,-84.24
4387000,-85.33
4388000,-84.53
4389000,-85.02
4390000,-85.76
4391000,-85.76
4392000,-85.33
4393000,-83.44
4394000,-83.53
4395000,-83.27
4396000,-82.79
4397000,-81.44
4398000,-80.8
4399000,-79.62
4400000,-80.19
4401000,-80.19
4402000,-79.84
4403000,-80.19
4404000,-82.18
4405000,-82.48
4406000,-83.53
4407000,-84.62
4408000,-84.24
4409000,-84.72
4410000,-85.12
4411000,-85.87
4412000,-84.62
4413000,-85.12
4414000,-85.12
4415000,-86.7
4416000,-85.54
4417000,-86.21
4418000,-86.21
4419000,-85.98
4420000,-85.33
4421000,-85.98
4422000,-86.45
4423000,-83.27
4424000,-86.45
4425000,-84.24
4426000,-85.33
4427000,-86.3
4428000,-85.51
4429000,-85.51
4430000,-82.75
4431000,-84.69
4432000,-86.79
4433000,-83.84
4434000,-84.59
4435000,-85.08
4436000,-85.08
4437000,-85.73
4438000,-86.18
4439000,-85.08
4440000,-85.73
4441000,-84.3
4442000,-84.59
4443000,-85.95
4444000,-85.83
4445000,-83.84
4446000,-85.51
4447000,-83.94
4448000,-85.4
4449000,-86.3
4450000,-84.88
4451000,-85.73
4452000,-84.99
4453000,-83.41
4454000,-85.4
4455000,-85.95
4456000,-85.08
4457000,-84.88
4458000,-85.73
4459000,-86.41
4460000,-84.99
4461000,-85.29
4462000,-85.95
4463000,-84.99
4464000,-85.95
4465000,-86.18
4466000,-84.49
4467000,-85.51
4468000,-84.59
4469000,-84.99
4470000,-84.59
4471000,-85.29
4472000,-84.99
4473000,-86.18
4474000,-85.29
4475000,-85.29
4476000,-84.49
4477000,-83.94
4478000,-85.08
4479000,-86.18
4480000,-86.78
4481000,-86.41
4482000,-83.24
4483000,-85.51
4484000,-85.51
4485000,-85.51
4486000,-82.83
4487000,-85.29
4488000,-84.21
4489000,-86.18
4490000,-85.51
4491000,-84.99
4492000,-84.59
4493000,-84.21
4494000,-83.84
4495000,-82.6
4496000,-82.3
4497000,-80.76
4498000,-80.39
4499000,-79.81
4500000,-79.81
4501000,-79.48
4502000,-80.64
4503000,-80.64
4504000,-82.3
4505000,-83.5
4506000,-82.83
4507000,-84.49
4508000,-85.95
4509000,-84.99
4510000,-86.3
4511000,-83.94
4512000,-85.83
4513000,-82.91
4514000,-84.49
4515000,-84.69
4516000,-84.99
4517000,-85.73
4518000,-85.83
4519000,-85.83
4520000,-84.88
4521000,-84.88
4522000,-85.29
4523000,-86.66
4524000,-87.43
4525000,-84.49
4526000,-84.49
4527000,-85.95
4528000,-85.73
4529000,-84.49
4530000,-84.99
4531000,-85.73
4532000,-85.73
4533000,-84.69
4534000,-85.73
4535000,-85.51
4536000,-86.18
4537000,-85.29
4538000,-85.08
4539000,-85.73
4540000,-84.11
4541000,-84.49
4542000,-85.73
4543000,-84.69
4544000,-84.3
4545000,-85.73
4546000,-84.3
4547000,-85.51
4548000,-85.73
4549000,-86.66
4550000,-85.29
4551000,-85.29
4552000,-85.51
4553000,-85.29
4554000,-84.49
4555000,-85.73
4556000,-84.99
4557000,-85.95
4558000,-86.78
4559000,-85.79
4560000,-86.01
4561000,-86.37
4562000,-85.05
4563000,-86.24
4564000,-85.05
4565000,-85.36
4566000,-85.15
4567000,-85.57
4568000,-83.31
4569000,-85.05
4570000,-84.65
4571000,-85.47
4572000,-84.75
4573000,-85.05
4574000,-84.65
4575000,-84.18
4576000,-84.56
4577000,-86.01
4578000,-85.47
4579000,-84.95
4580000,-84.65
4581000,-86.24
4582000,-84.95
4583000,-85.47
4584000,-85.47
4585000,-85.05
4586000,-85.15
4587000,-84.36
4588000,-84.18
4589000,-85.05
4590000,-84.75
4591000,-85.15
4592000,-84.95
4593000,-84
4594000,-83.47
4595000,-82.21
4596000,-82
4597000,-80.95
4598000,-80.46
4599000,-79.77
4600000,-78.92
4601000,-77.79
4602000,-80.34
4603000,-81.93
4604000,-81.34
4605000,-83.56
4606000,-84.28
4607000,-83.9
4608000,-84
4609000,-85.57
4610000,-86.37
4611000,-84.28
4612000,-86.37
4613000,-85.9
4614000,-85.9
4615000,-86.73
4616000,-85.9
4617000,-84.75
4618000,-85.15
4619000,-86.37
4620000,-86.01
4621000,-85.79
4622000,-84
4623000,-86.24
4624000,-86.85
4625000,-85.36
4626000,-85.73
4627000,-84.68
4628000,-85.08
4629000,-86.3
4630000,-84.11
4631000,-86.66
4632000,-87.16
4633000,-86.41
4634000,-85.73
4635000,-84.21
4636000,-84.68
4637000,-84.49
4638000,-84.88
4639000,-85.95
4640000,-84.11
4641000,-85.73
4642000,-84.98
4643000,-84.3
4644000,-84.21
4645000,-85.95
4646000,-84.49
4647000,-85.95
4648000,-84.59
4649000,-84.3
4650000,-84.98
4651000,-86.66
4652000,-86.17
4653000,-85.95
4654000,-84.68
4655000,-85.73
4656000,-83.84
4657000,-83.93
4658000,-86.66
4659000,-84.68
4660000,-84.88
4661000,-85.08
4662000,-85.83
4663000,-83.07
4664000,-84.59
4665000,-85.29
4666000,-85.72
4667000,-84.3
4668000,-85.08
4669000,-85.4
4670000,-84.68
4671000,-86.78
4672000,-85.83
4673000,-84.88
4674000,-87.29
4675000,-84.49
4676000,-85.08
4677000,-86.3
4678000,-85.29
4679000,-84.59
4680000,-85.08
4681000,-85.29
4682000,-86.41
4683000,-85.29
4684000,-85.29
4685000,-85.95
4686000,-85.5
4687000,-84.3
4688000,-83.93
4689000,-85.08
4690000,-83.58
4691000,-85.15
4692000,-85.57
4693000,-85.15
4694000,-83.56
4695000,-82.66
4696000,-81.93
4697000,-80.95
4698000,-80.83
4699000,-80.22
4700000,-79.77
4701000,-79.99
4702000,-80.95
4703000,-80.95
4704000,-82.29
4705000,-82.59
4706000,-81.93
4707000,-85.15
4708000,-85.15
4709000,-85.79
4710000,-84.56
4711000,-85.36
4712000,-85.9
4713000,-85.9
4714000,-86.48
4715000,-85.79
4716000,-85.79
4717000,-85.79
4718000,-85.57
4719000,-85.57
4720000,-85.79
4721000,-85.15
4722000,-84
4723000,-85.57
4724000,-86.01
4725000,-86.48
4726000,-85.05
4727000,-84.94
4728000,-86.24
4729000,-86.01
4730000,-84.65
4731000,-86.36
4732000,-85.79
4733000,-84.36
4734000,-85.46
4735000,-86.36
4736000,-85.15
4737000,-85.9
4738000,-86.48
4739000,-84.65
4740000,-87.23
4741000,-83.65
4742000,-85.9
4743000,-85.05
4744000,-85.57
4745000,-85.57
4746000,-84.27
4747000,-86.36
4748000,-84.36
4749000,-86.48
4750000,-84.65
4751000,-85.36
4752000,-85.9
4753000,-85.46
4754000,-84
4755000,-84.27
4756000,-85.9
4757000,-85.46
4758000,-85.79
4759000,-85.9
4760000,-82.59
4761000,-86.36
4762000,-86.01
4763000,-85.79
4764000,-85.9
4765000,-85.79
4766000,-82.82
4767000,-86.01
4768000,-86.24
4769000,-85.46
4770000,-86.01
4771000,-85.05
4772000,-84.94
4773000,-85.79
4774000,-86.24
4775000,-84.18
4776000,-84.94
4777000,-85.46
4778000,-86.01
4779000,-85.05
4780000,-86.97
4781000,-85.79
4782000,-85.79
4783000,-84.65
4784000,-86.36
4785000,-85.9
4786000,-85.79
4787000,-85.46
4788000,-86.01
4789000,-84.36
4790000,-85.36
4791000,-86.01
4792000,-83.9
4793000,-85.36
4794000,-82.9
4795000,-82.66
4796000,-82
4797000,-80.22
4798000,-79.87
4799000,-80.22
4800000,-80.22
4801000,-79.33
4802000,-80.83
4803000,-81.47
4804000,-81.2
4805000,-83.3
4806000,-83.56
4807000,-83.9
4808000,-85.79
4809000,-84.27
4810000,-84.56
4811000,-84
4812000,-86.36
4813000,-84.18
4814000,-85.9
4815000,-85.36
4816000,-86.01
4817000,-83.9
4818000,-86.24
4819000,-85.9
4820000,-85.57
4821000,-85.05
4822000,-85.57
4823000,-83.84
4824000,-84.88
4825000,-85.72
4826000,-83.75
4827000,-85.5
4828000,-84.59
4829000,-84.68
4830000,-85.5
4831000,-85.29
4832000,-85.83
4833000,-85.29
4834000,-85.83
4835000,-85.94
4836000,-85.94
4837000,-84.29
4838000,-86.3
4839000,-85.83
4840000,-86.91
4841000,-85.83
4842000,-86.17
4843000,-83.75
4844000,-85.94
4845000,-84.88
4846000,-85.94
4847000,-86.66
4848000,-85.29
4849000,-85.29
4850000,-86.66
4851000,-85.4
4852000,-86.78
4853000,-85.72
4854000,-85.4
4855000,-86.91
4856000,-85.72
4857000,-84.49
4858000,-85.29
4859000,-85.5
4860000,-84.68
4861000,-86.41
4862000,-83.84
4863000,-85.94
4864000,-85.5
4865000,-84.68
4866000,-84.21
4867000,-85.94
4868000,-85.29
4869000,-85.5
4870000,-84.21
4871000,-85.4
4872000,-84.88
4873000,-84.68
4874000,-85.4
4875000,-84.88
4876000,-84.98
4877000,-85.94
4878000,-86.3
4879000,-85.29
4880000,-83.93
4881000,-85.08
4882000,-85.94
4883000,-84.88
4884000,-84.98
4885000,-85.72
4886000,-85.72
4887000,-85.94
4888000,-85.4
4889000,-85.36
4890000,-86.48
4891000,-84.36
4892000,-85.46
4893000,-84.56
4894000,-84.75
4895000,-82.82
4896000,-81.08
4897000,-81.34
4898000,-80.82
4899000,-79.77
4900000,-80.7
4901000,-80.1
4902000,-79.99
4903000,-80.82
4904000,-82.36
4905000,-81.79
4906000,-84.18
4907000,-85.36
4908000,-85.36
4909000,-85.15
4910000,-85.46
4911000,-85.79
4912000,-84.27
4913000,-85.15
4914000,-84.55
4915000,-85.15
4916000,-85.15
4917000,-85.05
4918000,-86.36
4919000,-83.56
4920000,-85.36
4921000,-85.9
4922000,-83.13
4923000,-84.27
4924000,-86.01
4925000,-86.72
4926000,-84.65
4927000,-86.01
4928000,-86.01
4929000,-86.01
4930000,-86.97
4931000,-85.79
4932000,-84.36
4933000,-85.57
4934000,-86.36
4935000,-85.79
4936000,-85.46
4937000,-84.94
4938000,-84.36
4939000,-86.24
4940000,-85.15
4941000,-85.46
4942000,-84.27
4943000,-85.57
4944000,-85.57
4945000,-86.97
4946000,-86.48
4947000,-86.48
4948000,-85.57
4949000,-84.65
4950000,-86.36
4951000,-84
4952000,-83.56
4953000,-86.01
4954000,-85.57
4955000,-85.9
4956000,-84.75
4957000,-85.46
4958000,-86.01
4959000,-86.48
4960000,-85.15
4961000,-85.46
4962000,-86.24
4963000,-86.01
4964000,-85.46
4965000,-86.72
4966000,-86.01
4967000,-84.75
4968000,-85.79
4969000,-84.27
4970000,-84.75
4971000,-86.72
4972000,-86.01
4973000,-86.24
4974000,-85.05
4975000,-86.01
4976000,-85.36
4977000,-85.89
4978000,-85.79
4979000,-84.65
4980000,-85.36
4981000,-85.05
4982000,-85.57
4983000,-86.01
4984000,-85.36
4985000,-85.89
4986000,-86.36
4987000,-86.48
4988000,-86.01
4989000,-86.36
4990000,-85.46
4991000,-85.89
4992000,-85.36
4993000,-85.36
4994000,-82.59
4995000,-80.45
4996000,-82.29
4997000,-81.08
4998000,-81.08
4999000,-80.58
5000000,-79.99
