Frequency (Hz),Amplitude (dBm)
10000000,-45.45
10009000,-65.23
10018000,-80.84
10027000,-85.94
10036000,-89.81
10045000,-89.69
10054000,-91.96
10063000,-92.8
10072000,-92.63
10081000,-91.88
10090000,-90.91
10099000,-92.8
10108000,-91.88
10117000,-91.8
10126000,-91.34
10135000,-92.63
10144000,-92.38
10153000,-91.88
10162000,-92.12
10171000,-93.26
10180000,-90.45
10189000,-92.89
10198000,-90.32
10207000,-91.05
10216000,-91.96
10225000,-91.34
10234000,-91.05
10243000,-92.98
10252000,-92.98
10261000,-92.8
10270000,-89.56
10279000,-92.63
10288000,-91.19
10297000,-92.29
10306000,-92.71
10315000,-92.63
10324000,-90.7
10333000,-91.34
10342000,-92.12
10351000,-91.27
10360000,-92.54
10369000,-91.8
10378000,-91.19
10387000,-91.64
10396000,-91.64
10405000,-91.96
10414000,-90.84
10423000,-92.63
10432000,-92.12
10441000,-91.49
10450000,-91.64
10459000,-91.49
10468000,-92.8
10477000,-91.49
10486000,-92.12
10495000,-91.27
10504000,-92.98
10513000,-91.72
10522000,-92.8
10531000,-92.45
10540000,-91.12
10549000,-93.07
10558000,-92.54
10567000,-92.2
10576000,-93.34
10585000,-93.16
10594000,-91.88
10603000,-93.16
10612000,-93.63
10621000,-93.16
10630000,-90.7
10639000,-92.79
10648000,-92.28
10657000,-93.16
10666000,-91.64
10675000,-91.96
10684000,-92.54
10693000,-92.79
10702000,-92.79
10711000,-93.07
10720000,-91.8
10729000,-91.88
10738000,-92.63
10747000,-93.63
10756000,-92.45
10765000,-92.45
10774000,-93.16
10783000,-92.88
10792000,-92.28
10801000,-91.64
10810000,-92.54
10819000,-91.8
10828000,-91.57
10837000,-91.57
10846000,-93.53
10855000,-91.64
10864000,-92.7
10873000,-92.98
10882000,-91.34
10891000,-91.19
10900000,-91.57
10909000,-92.79
10918000,-93.07
10927000,-92.45
10936000,-92.37
10945000,-91.72
10954000,-92.79
10963000,-93.34
10972000,-91.34
10981000,-92.37
10990000,-90.62
10999000,-92.54
11008000,-91.72
11017000,-91.95
11026000,-93.15
11035000,-91.72
11044000,-91.57
11053000,-93.34
11062000,-92.45
11071000,-93.15
11080000,-91.64
11089000,-91.95
11098000,-91.04
11107000,-92.62
11116000,-91.72
11125000,-91.57
11134000,-92.45
11143000,-91.64
11152000,-92.2
11161000,-91.79
11170000,-92.45
11179000,-92.11
11188000,-93.15
11197000,-92.62
11206000,-92.11
11215000,-91.79
11224000,-92.98
11233000,-93.25
11242000,-92.98
11251000,-92.03
11260000,-92.53
11269000,-92.53
11278000,-91.95
11287000,-90.62
11296000,-90.9
11305000,-92.45
11314000,-90.76
11323000,-91.63
11332000,-92.11
11341000,-93.15
11350000,-92.62
11359000,-91.11
11368000,-92.62
11377000,-92.62
11386000,-91.63
11395000,-92.62
11404000,-94.33
11413000,-92.28
11422000,-92.53
11431000,-92.79
11440000,-91.56
11449000,-91.48
11458000,-93.53
11467000,-90.76
11476000,-91.18
11485000,-93.15
11494000,-91.95
11503000,-89.55
11512000,-92.7
11521000,-92.79
11530000,-93.33
11539000,-91.87
11548000,-90.69
11557000,-92.2
11566000,-92.7
11575000,-91.79
11584000,-92.79
11593000,-93.15
11602000,-93.43
11611000,-92.11
11620000,-92.62
11629000,-91.79
11638000,-92.11
11647000,-91.95
11656000,-92.97
11665000,-90.55
11674000,-92.87
11683000,-91.33
11692000,-92.2
11701000,-92.27
11710000,-93.15
11719000,-91.26
11728000,-91.33
11737000,-93.33
11746000,-92.7
11755000,-92.03
11764000,-91.33
11773000,-92.62
11782000,-92.87
11791000,-93.53
11800000,-92.19
11809000,-93.15
11818000,-92.36
11827000,-91.79
11836000,-93.15
11845000,-92.79
11854000,-92.44
11863000,-92.03
11872000,-91.56
11881000,-94.33
11890000,-91.87
11899000,-92.97
11908000,-91.63
11917000,-91.11
11926000,-92.36
11935000,-92.62
11944000,-91.48
11953000,-91.48
11962000,-92.11
11971000,-92.62
11980000,-92.53
11989000,-93.91
11998000,-92.62
12007000,-92.78
12016000,-90.9
12025000,-93.52
12034000,-92.87
12043000,-92.19
12052000,-92.03
12061000,-91.79
12070000,-92.27
12079000,-91.71
12088000,-92.53
12097000,-92.53
12106000,-93.33
12115000,-90.75
12124000,-92.62
12133000,-91.79
12142000,-92.87
12151000,-91.48
12160000,-92.53
12169000,-90.17
12178000,-92.02
12187000,-92.78
12196000,-92.36
12205000,-92.44
12214000,-91.71
12223000,-91.18
12232000,-91.94
12241000,-93.14
12250000,-92.87
12259000,-92.78
12268000,-91.63
12277000,-91.94
12286000,-91.51
12295000,-92.47
12304000,-93.56
12313000,-91.82
12322000,-92.81
12331000,-93.09
12340000,-90.93
12349000,-92.81
12358000,-92.65
12367000,-91
12376000,-93
12385000,-93.55
12394000,-91.82
12403000,-92.53
12412000,-91.19
12421000,-92.7
12430000,-92.28
12439000,-91.57
12448000,-93.42
12457000,-92.78
12466000,-90.91
12475000,-91.87
12484000,-91.71
12493000,-90.26
12502000,-90.7
12511000,-92.61
12520000,-92.7
12529000,-90.84
12538000,-91.12
12547000,-92.7
12556000,-92.45
12565000,-92.53
12574000,-92.11
12583000,-91.49
12592000,-92.19
12601000,-92.56
12610000,-92.9
12619000,-92.39
12628000,-92.64
12637000,-91.66
12646000,-93.36
12655000,-90.64
12664000,-91.97
12673000,-91.82
12682000,-91.21
12691000,-92.64
12700000,-92.13
12709000,-92.64
12718000,-93.36
12727000,-92.3
12736000,-91.36
12745000,-92.05
12754000,-92.3
12763000,-91.44
12772000,-91.59
12781000,-92.3
12790000,-92.47
12799000,-91.66
12808000,-92.72
12817000,-93.08
12826000,-89.94
12835000,-92.81
12844000,-90.78
12853000,-91.36
12862000,-91.51
12871000,-90.08
12880000,-93.17
12889000,-91.97
12898000,-91.81
12907000,-93.08
12916000,-92.64
12925000,-91.97
12934000,-92.72
12943000,-90.57
12952000,-93.17
12961000,-92.81
12970000,-91.28
12979000,-90.57
12988000,-93.45
12997000,-93.36
13006000,-91.65
13015000,-91.06
13024000,-92.99
13033000,-92.47
13042000,-93.36
13051000,-91.81
13060000,-92.46
13069000,-90.46
13078000,-92.81
13087000,-92.64
13096000,-92.9
13105000,-91.5
13114000,-91.81
13123000,-92.81
13132000,-91.65
13141000,-91.35
13150000,-91.81
13159000,-91.58
13168000,-92.22
13177000,-92.05
13186000,-92.99
13195000,-93.35
13204000,-92.64
13213000,-92.81
13222000,-91.97
13231000,-92.46
13240000,-92.99
13249000,-91.65
13258000,-91.97
13267000,-91.81
13276000,-92.9
13285000,-91.28
13294000,-93.64
13303000,-91.73
13312000,-91.2
13321000,-93.17
13330000,-92.64
13339000,-92.46
13348000,-92.29
13357000,-92.13
13366000,-92.29
13375000,-92.29
13384000,-92.46
13393000,-91.73
13402000,-93.17
13411000,-92.64
13420000,-91.81
13429000,-91.5
13438000,-93.35
13447000,-91.13
13456000,-92.29
13465000,-93.35
13474000,-93.29
13483000,-91.74
13492000,-92.06
13501000,-92.74
13510000,-90.85
13519000,-93.1
13528000,-91.58
13537000,-91.74
13546000,-91.74
13555000,-92.31
13564000,-92.15
13573000,-92.23
13582000,-92.57
13591000,-91.28
13600000,-92.06
13609000,-92.39
13618000,-92.31
13627000,-92.23
13636000,-92.15
13645000,-93.67
13654000,-91.9
13663000,-91.58
13672000,-91.58
13681000,-92.06
13690000,-91.98
13699000,-91.13
13708000,-92.39
13717000,-91.58
13726000,-92.57
13735000,-91.74
13744000,-91.98
13753000,-93.28
13762000,-92.39
13771000,-93.48
13780000,-92.39
13789000,-89.87
13798000,-90.71
13807000,-91.13
13816000,-91.06
13825000,-93.57
13834000,-92.22
13843000,-93.38
13852000,-92.31
13861000,-93.28
13870000,-91.98
13879000,-90.78
13888000,-92.22
13897000,-91.82
13906000,-92.31
13915000,-91.36
13924000,-93.01
13933000,-93.01
13942000,-92.39
13951000,-92.22
13960000,-92.73
13969000,-93.19
13978000,-93.38
13987000,-91.43
13996000,-92.48
14005000,-91.43
14014000,-94.17
14023000,-92.92
14032000,-93.86
14041000,-92.65
14050000,-91.13
14059000,-91.8
14068000,-92.63
14077000,-92.46
14086000,-93.07
14095000,-92.99
14104000,-91.05
14113000,-92.8
14122000,-93.35
14131000,-92.8
14140000,-93.35
14149000,-91.42
14158000,-92.99
14167000,-93.73
14176000,-92.71
14185000,-93.54
14194000,-92.04
14203000,-93.93
14212000,-93.07
14221000,-93.26
14230000,-91.64
14239000,-92.8
14248000,-92.63
14257000,-92.89
14266000,-91.49
14275000,-92.12
14284000,-91.64
14293000,-91.64
14302000,-91.57
14311000,-92.45
14320000,-92.8
14329000,-93.16
14338000,-92.54
14347000,-93.64
14356000,-91.72
14365000,-92.54
14374000,-92.29
14383000,-93.26
14392000,-92.63
14401000,-92.45
14410000,-92.29
14419000,-92.45
14428000,-92.54
14437000,-91.8
14446000,-93.54
14455000,-91.8
14464000,-92.71
14473000,-93.83
14482000,-92.37
14491000,-91.96
14500000,-93.34
14509000,-93.16
14518000,-93.16
14527000,-92.54
14536000,-92.45
14545000,-93.54
14554000,-91.88
14563000,-91.12
14572000,-93.34
14581000,-92.21
14590000,-93.54
14599000,-93.44
14608000,-91.57
14617000,-92.21
14626000,-91.8
14635000,-93.44
14644000,-92.8
14653000,-92.73
14662000,-92.56
14671000,-92.22
14680000,-92.73
14689000,-92.05
14698000,-92.39
14707000,-91.35
14716000,-93.28
14725000,-91.27
14734000,-92.47
14743000,-92.05
14752000,-93
14761000,-91.12
14770000,-93
14779000,-92.73
14788000,-92.14
14797000,-90.98
14806000,-93.09
14815000,-92.22
14824000,-92.05
14833000,-89.49
14842000,-91.57
14851000,-93.27
14860000,-92.56
14869000,-92.73
14878000,-92.05
14887000,-92.05
14896000,-92.91
14905000,-92.91
14914000,-92.91
14923000,-92.91
14932000,-92.3
14941000,-92.56
14950000,-92.14
14959000,-91.5
14968000,-91.73
14977000,-92.64
14986000,-91.97
14995000,-92.47
15004000,-92.56
15013000,-91.81
15022000,-91.57
15031000,-92.56
15040000,-93.27
15049000,-91.35
15058000,-93.47
15067000,-93.37
15076000,-90.91
15085000,-92.38
15094000,-92.64
15103000,-92.47
15112000,-92.73
15121000,-91.73
15130000,-92.64
15139000,-92.81
15148000,-92.21
15157000,-92.56
15166000,-92.21
15175000,-92.91
15184000,-92.3
15193000,-92.73
15202000,-91.42
15211000,-92.91
15220000,-93.09
15229000,-92.56
15238000,-93.47
15247000,-91.57
15256000,-93.56
15265000,-92.33
15274000,-93.3
15283000,-91.76
15292000,-92.59
15301000,-93.12
15310000,-92.25
15319000,-91.23
15328000,-93.12
15337000,-91.45
15346000,-91.3
15355000,-94.19
15364000,-90.73
15373000,-91.92
15382000,-93.12
15391000,-92.08
15400000,-93.69
15409000,-91.38
15418000,-92.41
15427000,-92.5
15436000,-93.3
15445000,-91.76
15454000,-91.01
15463000,-92.67
15472000,-92.17
15481000,-92.59
15490000,-93.69
15499000,-91.15
15508000,-92.76
15517000,-93.59
15526000,-93.3
15535000,-92.41
15544000,-91.15
15553000,-92.33
15562000,-92.59
15571000,-93.5
15580000,-91.38
15589000,-92.08
15598000,-93.5
15607000,-91.76
15616000,-92.41
15625000,-92.5
15634000,-91.92
15643000,-92.67
15652000,-92.94
15661000,-91.92
15670000,-92.41
15679000,-91.45
15688000,-92.41
15697000,-92.08
15706000,-90.58
15715000,-91.76
15724000,-93.88
15733000,-93.49
15742000,-91.23
15751000,-94.09
15760000,-92.5
15769000,-91.45
15778000,-92.07
15787000,-93.21
15796000,-92.24
15805000,-91.92
15814000,-92.16
15823000,-92.59
15832000,-92.94
15841000,-90.87
15850000,-90.11
15859000,-92.99
15868000,-92.38
15877000,-90.24
15886000,-91.8
15895000,-92.72
15904000,-93.65
15913000,-93.18
15922000,-93.27
15931000,-91.88
15940000,-90.69
15949000,-92.13
15958000,-91.56
15967000,-90.55
15976000,-92.21
15985000,-93.36
15994000,-92.72
16003000,-93.08
16012000,-92.55
16021000,-90.24
16030000,-92.99
16039000,-91.56
16048000,-93.08
16057000,-92.21
16066000,-91.56
16075000,-93.85
16084000,-92.37
16093000,-92.72
16102000,-93.46
16111000,-92.04
16120000,-91.72
16129000,-93.26
16138000,-90.83
16147000,-91.49
16156000,-92.9
16165000,-92.9
16174000,-90.24
16183000,-92.29
16192000,-92.37
16201000,-92.72
16210000,-93.18
16219000,-91.56
16228000,-92.8
16237000,-92.72
16246000,-92.21
16255000,-92.46
16264000,-93.55
16273000,-92.04
16282000,-93.65
16291000,-92.99
16300000,-92.13
16309000,-93.36
16318000,-92.29
16327000,-92.55
16336000,-93.08
16345000,-92.2
16354000,-92.12
16363000,-90.69
16372000,-93.17
16381000,-93.84
16390000,-92.72
16399000,-93.08
16408000,-93.55
16417000,-93.08
16426000,-91.88
16435000,-91.72
16444000,-93.78
16453000,-92.4
16462000,-91.37
16471000,-93.11
16480000,-93.02
16489000,-92.93
16498000,-92.58
16507000,-92.32
16516000,-91.59
16525000,-92.93
16534000,-92.66
16543000,-91.14
16552000,-92.24
16561000,-93.68
16570000,-92.4
16579000,-92.24
16588000,-92.16
16597000,-92.58
16606000,-92.66
16615000,-91.59
16624000,-93.11
16633000,-91.99
16642000,-92.24
16651000,-93.49
16660000,-93.39
16669000,-92.58
16678000,-92.93
16687000,-91
16696000,-93.39
16705000,-92.93
16714000,-91.91
16723000,-92.4
16732000,-91.52
16741000,-93.11
16750000,-92.16
16759000,-92.4
16768000,-92.58
16777000,-93.98
16786000,-91.52
16795000,-94.08
16804000,-92.75
16813000,-91.07
16822000,-92.58
16831000,-93.39
16840000,-92.15
16849000,-91.14
16858000,-92.93
16867000,-92.93
16876000,-92.58
16885000,-92.66
16894000,-91.99
16903000,-93.68
16912000,-92.32
16921000,-93.49
16930000,-92.4
16939000,-92.93
16948000,-92.23
16957000,-92.83
16966000,-91.44
16975000,-92.4
16984000,-91.22
16993000,-92.23
17002000,-93.87
17011000,-92.4
17020000,-93.58
17029000,-91.07
17038000,-92.4
17047000,-92.93
17056000,-92.93
17065000,-91.59
17074000,-92.49
17083000,-92.74
17092000,-94.07
17101000,-91.44
17110000,-93.29
17119000,-93.1
17128000,-92.58
17137000,-92.83
17146000,-93.1
17155000,-92.93
17164000,-91.83
17173000,-91.59
17182000,-92.06
17191000,-91.14
17200000,-92.23
17209000,-91.37
17218000,-92.4
17227000,-92.15
17236000,-93.98
17245000,-92.93
17254000,-91.44
17263000,-93.68
17272000,-92.4
17281000,-92.74
17290000,-91.75
17299000,-93.48
17308000,-91
17317000,-92.83
17326000,-94.07
17335000,-92.4
17344000,-91.98
17353000,-91.29
17362000,-90.99
17371000,-92.93
17380000,-93.48
17389000,-92.93
17398000,-93.2
17407000,-92.23
17416000,-91.44
17425000,-92.4
17434000,-92.74
17443000,-92.48
17452000,-91.36
17461000,-91.29
17470000,-92.4
17479000,-92.74
17488000,-93.58
17497000,-92.06
17506000,-90.01
17515000,-93.77
17524000,-92.92
17533000,-92.23
17542000,-93.67
17551000,-91.58
17560000,-92.4
17569000,-92.83
17578000,-91.74
17587000,-89.87
17596000,-92.65
17605000,-93.01
17614000,-92.06
17623000,-92.35
17632000,-90.96
17641000,-91.03
17650000,-93.51
17659000,-93.51
17668000,-93.13
17677000,-92.26
17686000,-91.85
17695000,-91.47
17704000,-91.17
17713000,-93.61
17722000,-93.51
17731000,-91.62
17740000,-92.77
17749000,-92.6
17758000,-92.26
17767000,-93.23
17776000,-92.26
17785000,-93.71
17794000,-91.17
17803000,-93.23
17812000,-92.26
17821000,-93.04
17830000,-92.43
17839000,-93.41
17848000,-93.41
17857000,-92.18
17866000,-92.09
17875000,-91.17
17884000,-91.93
17893000,-92.86
17902000,-92.86
17911000,-93.9
17920000,-92.96
17929000,-92.96
17938000,-92.77
17947000,-93.41
17956000,-93.9
17965000,-92.95
17974000,-92.77
17983000,-91.16
17992000,-93.41
18001000,-92.95
18010000,-92.26
18019000,-92.6
18028000,-92.35
18037000,-91.69
18046000,-93.23
18055000,-90.74
18064000,-92.18
18073000,-92.77
18082000,-93.51
18091000,-92.77
18100000,-91.31
18109000,-92.68
18118000,-92.68
18127000,-93.32
18136000,-93.8
18145000,-92.68
18154000,-91.54
18163000,-92.18
18172000,-92.77
18181000,-90.88
18190000,-93.61
18199000,-92.68
18208000,-92.26
18217000,-92.22
18226000,-93.47
18235000,-93.28
18244000,-92.73
18253000,-91.98
18262000,-92.39
18271000,-93.47
18280000,-91.58
18289000,-93.47
18298000,-90.39
18307000,-91.9
18316000,-93.86
18325000,-93.77
18334000,-93.28
18343000,-91.9
18352000,-91.82
18361000,-91.51
18370000,-91.28
18379000,-92.31
18388000,-93.67
18397000,-93.19
18406000,-92.73
18415000,-93.09
18424000,-92.05
18433000,-92.22
18442000,-91.58
18451000,-92.14
18460000,-93.67
18469000,-92.82
18478000,-91.51
18487000,-93.67
18496000,-92.73
18505000,-91.28
18514000,-91.74
18523000,-92.31
18532000,-92.92
18541000,-92.56
18550000,-92.48
18559000,-92.39
18568000,-90.99
18577000,-92.48
18586000,-92.73
18595000,-92.56
18604000,-93.67
18613000,-91.21
18622000,-92.05
18631000,-93.47
18640000,-91.21
18649000,-92.14
18658000,-91.89
18667000,-92.22
18676000,-93.76
18685000,-93
18694000,-92.92
18703000,-91.89
18712000,-92.31
18721000,-90.77
18730000,-93.19
18739000,-92.82
18748000,-93.66
18757000,-93.47
18766000,-91.65
18775000,-92.56
18784000,-93.09
18793000,-92.91
18802000,-91.97
18811000,-92.56
18820000,-93.28
18829000,-93.09
18838000,-91.12
18847000,-91.89
18856000,-92.47
18865000,-92.39
18874000,-93.86
18883000,-92.64
18892000,-92.91
18901000,-91.65
18910000,-92.56
18919000,-92.38
18928000,-91.97
18937000,-90.84
18946000,-93.96
18955000,-91.65
18964000,-92.91
18973000,-93.86
18982000,-92.47
18991000,-93.47
19000000,-92.14
19009000,-91.5
19018000,-92.05
19027000,-92.38
19036000,-91.65
19045000,-93.27
19054000,-91.89
19063000,-90.7
19072000,-92.47
19081000,-93
19090000,-93.96
19099000,-92.91
19108000,-93.09
19117000,-91.57
19126000,-93.47
19135000,-92.14
19144000,-90.38
19153000,-92.05
19162000,-92.38
19171000,-93.27
19180000,-93.47
19189000,-92.81
19198000,-91.65
19207000,-92.38
19216000,-93.86
19225000,-92.3
19234000,-92.56
19243000,-90.56
19252000,-92.73
19261000,-91.89
19270000,-89.74
19279000,-93.09
19288000,-90.84
19297000,-92.81
19306000,-91.73
19315000,-92.73
19324000,-92.13
19333000,-92.81
19342000,-92.47
19351000,-92.73
19360000,-91.73
19369000,-92.05
19378000,-93.27
19387000,-91.57
19396000,-91.73
19405000,-91.27
19414000,-92.72
19423000,-93.47
19432000,-92.81
19441000,-91.89
19450000,-92.47
19459000,-91.35
19468000,-92.91
19477000,-92.56
19486000,-92.47
19495000,-93
19504000,-93.09
19513000,-92.72
19522000,-93.76
19531000,-91.57
19540000,-91.12
19549000,-92.13
19558000,-91.12
19567000,-92.21
19576000,-93.08
19585000,-92.56
19594000,-92.38
19603000,-92.04
19612000,-93.08
19621000,-92.91
19630000,-91.81
19639000,-92.91
19648000,-92.04
19657000,-92.91
19666000,-92.21
19675000,-92.55
19684000,-92.38
19693000,-93.66
19702000,-92.63
19711000,-92.04
19720000,-92.72
19729000,-92.91
19738000,-94.05
19747000,-90.62
19756000,-93.75
19765000,-92.63
19774000,-92.91
19783000,-93.27
19792000,-91.27
19801000,-92.04
19810000,-92.38
19819000,-91.72
19828000,-91.72
19837000,-93.08
19846000,-93.46
19855000,-92.21
19864000,-93.75
19873000,-92.04
19882000,-91.42
19891000,-93.46
19900000,-90.55
19909000,-91.8
19918000,-93.46
19927000,-92.04
19936000,-91.88
19945000,-91.57
19954000,-90.83
19963000,-89.01
19972000,-85.7
19981000,-80.33
19990000,-67.63
19999000,-46.43
20008000,-63.97
20017000,-79.48
20026000,-86.22
20035000,-89.39
20044000,-91.45
20053000,-90.87
20062000,-89.64
20071000,-92.94
20080000,-92.07
20089000,-92.33
20098000,-92.5
20107000,-91.3
20116000,-92.58
20125000,-93.59
20134000,-92.75
20143000,-93.11
20152000,-91.91
20161000,-92.16
20170000,-92.84
20179000,-92.58
20188000,-93.3
20197000,-93.11
20206000,-93.21
20215000,-92.94
20224000,-90.93
20233000,-93.69
20242000,-92.58
20251000,-92.58
20260000,-93.59
20269000,-92.24
20278000,-92.24
20287000,-92.07
20296000,-92.41
20305000,-92.24
20314000,-93.3
20323000,-92.07
20332000,-90.86
20341000,-92.84
20350000,-91.99
20359000,-92.41
20368000,-91.91
20377000,-93.69
20386000,-91
20395000,-93.02
20404000,-92.58
20413000,-93.68
20422000,-93.02
20431000,-92.07
20440000,-91.75
20449000,-92.24
20458000,-92.84
20467000,-93.21
20476000,-93.88
20485000,-93.21
20494000,-92.07
20503000,-92.58
20512000,-92.49
20521000,-93.59
20530000,-90.58
20539000,-92.4
20548000,-93.68
20557000,-93.78
20566000,-92.66
20575000,-91.91
20584000,-91
20593000,-92.96
20602000,-92.43
20611000,-92.34
20620000,-92.34
20629000,-91.53
20638000,-92.87
20647000,-92.26
20656000,-94.22
20665000,-92.95
20674000,-93.04
20683000,-92.26
20692000,-90.93
20701000,-93.62
20710000,-91.76
20719000,-93.23
20728000,-92.59
20737000,-93.04
20746000,-93.62
20755000,-93.23
20764000,-93.14
20773000,-92.87
20782000,-92.68
20791000,-93.04
20800000,-91.45
20809000,-92.68
20818000,-93.81
20827000,-91.37
20836000,-93.52
20845000,-93.42
20854000,-93.71
20863000,-92.51
20872000,-92.68
20881000,-93.23
20890000,-92.51
20899000,-93.52
20908000,-92.26
20917000,-92.86
20926000,-92.95
20935000,-92.42
20944000,-92.86
20953000,-92.51
20962000,-93.32
20971000,-91.45
20980000,-90.2
20989000,-91.45
20998000,-93.52
21007000,-93.42
21016000,-92.59
21025000,-92.09
21034000,-93.04
21043000,-91.92
21052000,-94.01
21061000,-92.51
21070000,-92.51
21079000,-91.92
21088000,-92.33
21097000,-91.07
21106000,-92.17
21115000,-90.51
21124000,-92.86
21133000,-92.33
21142000,-92.95
21151000,-92.25
21160000,-90.79
21169000,-93.42
21178000,-91.37
21187000,-93.32
21196000,-93.32
21205000,-92.33
21214000,-93.42
21223000,-92.68
21232000,-92.17
21241000,-89.2
21250000,-91.6
21259000,-93.04
21268000,-91.45
21277000,-92.51
21286000,-92.51
21295000,-92.68
21304000,-92
21313000,-93.71
21322000,-92.51
21331000,-93.91
21340000,-92.42
21349000,-92.51
21358000,-92
21367000,-93.04
21376000,-93.04
21385000,-93.13
21394000,-92.42
21403000,-92.76
21412000,-92.95
21421000,-92.76
21430000,-91.3
21439000,-91.07
21448000,-91.22
21457000,-92.51
21466000,-91.68
21475000,-92.51
21484000,-93.8
21493000,-91.84
21502000,-90.79
21511000,-92.86
21520000,-90.58
21529000,-92.16
21538000,-91.92
21547000,-92.51
21556000,-92.33
21565000,-92.95
21574000,-91.6
21583000,-93.51
21592000,-90.93
21601000,-93.61
21610000,-92.08
21619000,-92.51
21628000,-91.84
21637000,-91.52
21646000,-92.95
21655000,-90.5
21664000,-93.91
21673000,-92.25
21682000,-93.13
21691000,-92.16
21700000,-94.32
21709000,-93.03
21718000,-92.51
21727000,-92.86
21736000,-93.22
21745000,-92.86
21754000,-93.03
21763000,-93.7
21772000,-93.61
21781000,-93.54
21790000,-93.54
21799000,-92.71
21808000,-93.25
21817000,-92.19
21826000,-93.45
21835000,-90.23
21844000,-92.36
21853000,-92.79
21862000,-92.98
21871000,-93.45
21880000,-92.45
21889000,-91.79
21898000,-92.45
21907000,-93.35
21916000,-94.04
21925000,-92.45
21934000,-92.89
21943000,-92.7
21952000,-93.45
21961000,-93.16
21970000,-92.7
21979000,-93.07
21988000,-94.46
21997000,-92.19
22006000,-93.07
22015000,-93.64
22024000,-93.07
22033000,-93.83
22042000,-94.04
22051000,-94.04
22060000,-91.55
22069000,-92.11
22078000,-92.79
22087000,-92.02
22096000,-91.55
22105000,-92.19
22114000,-91.03
22123000,-92.45
22132000,-92.02
22141000,-93.25
22150000,-92.54
22159000,-92.7
22168000,-91.71
22177000,-93.35
22186000,-93.94
22195000,-93.83
22204000,-93.44
22213000,-91.71
22222000,-93.44
22231000,-91.86
22240000,-92.19
22249000,-93.64
22258000,-92.53
22267000,-93.06
22276000,-93.83
22285000,-93.73
22294000,-92.89
22303000,-92.19
22312000,-93.54
22321000,-94.03
22330000,-92.7
22339000,-93.94
22348000,-92.97
22357000,-93.34
22366000,-93.64
22375000,-93.83
22384000,-93.06
22393000,-94.9
22402000,-92.53
22411000,-91.4
22420000,-92.02
22429000,-92.19
22438000,-92.97
22447000,-93.06
22456000,-90.35
22465000,-92.11
22474000,-94.9
22483000,-94.03
22492000,-92.28
22501000,-91.24
22510000,-93.06
22519000,-92.97
22528000,-90.53
22537000,-92.11
22546000,-93.44
22555000,-91.78
22564000,-92.97
22573000,-93.83
22582000,-93.44
22591000,-92.88
22600000,-93.06
22609000,-94.03
22618000,-92.02
22627000,-93.25
22636000,-93.25
22645000,-93.93
22654000,-92.7
22663000,-92.53
22672000,-91.86
22681000,-94.03
22690000,-93.16
22699000,-93.25
22708000,-94.24
22717000,-94.24
22726000,-94.67
22735000,-92.88
22744000,-92.11
22753000,-93.16
22762000,-91.78
22771000,-93.34
22780000,-92.02
22789000,-91.62
22798000,-93.06
22807000,-94.45
22816000,-93.63
22825000,-91.54
22834000,-92.79
22843000,-93.06
22852000,-92.53
22861000,-93.63
22870000,-94.24
22879000,-93.44
22888000,-94.03
22897000,-93.63
22906000,-92.88
22915000,-93.24
22924000,-93.53
22933000,-92.7
22942000,-93.53
22951000,-94.42
22960000,-93.6
22969000,-94.21
22978000,-92.85
22987000,-92.07
22996000,-93.4
23005000,-92.85
23014000,-91.67
23023000,-93.6
23032000,-93.6
23041000,-93.79
23050000,-92.94
23059000,-92.85
23068000,-93.9
23077000,-93.31
23086000,-93.6
23095000,-93.69
23104000,-92.24
23113000,-93.69
23122000,-92.66
23131000,-92.49
23140000,-93.4
23149000,-93.6
23158000,-93.6
23167000,-92.32
23176000,-93.21
23185000,-92.66
23194000,-93.79
23203000,-92.85
23212000,-94.1
23221000,-93.4
23230000,-93.02
23239000,-92.32
23248000,-93.5
23257000,-92.93
23266000,-93.6
23275000,-92.66
23284000,-93.6
23293000,-94.42
23302000,-92.85
23311000,-91.74
23320000,-91.2
23329000,-92.15
23338000,-91.82
23347000,-93.4
23356000,-91.98
23365000,-92.57
23374000,-92.07
23383000,-93.02
23392000,-93.21
23401000,-92.4
23410000,-91.98
23419000,-93.21
23428000,-93.59
23437000,-92.66
23446000,-92.49
23455000,-92.15
23464000,-92.49
23473000,-92.31
23482000,-93.4
23491000,-92.49
23500000,-92.49
23509000,-92.31
23518000,-92.57
23527000,-92.57
23536000,-94.31
23545000,-92.66
23554000,-93.18
23563000,-93.18
23572000,-91.73
23581000,-93.47
23590000,-92.38
23599000,-92.81
23608000,-92.13
23617000,-91.89
23626000,-93.09
23635000,-92.05
23644000,-92.21
23653000,-92.81
23662000,-92.47
23671000,-93
23680000,-92.91
23689000,-92.81
23698000,-93.66
23707000,-92.91
23716000,-93.09
23725000,-92.81
23734000,-93.76
23743000,-93.46
23752000,-93.08
23761000,-91.73
23770000,-93.85
23779000,-91.89
23788000,-93.66
23797000,-93.27
23806000,-93.08
23815000,-92.3
23824000,-91.88
23833000,-93.46
23842000,-93.37
23851000,-93.27
23860000,-93.08
23869000,-92.72
23878000,-94.58
23887000,-92.55
23896000,-93.08
23905000,-92.38
23914000,-92.63
23923000,-92.91
23932000,-91.65
23941000,-92.55
23950000,-92.21
23959000,-93.85
23968000,-92.99
23977000,-92.91
23986000,-92.04
23995000,-92.13
24004000,-93.46
24013000,-91.65
24022000,-92.72
24031000,-93.46
24040000,-92.91
24049000,-92.38
24058000,-92.3
24067000,-93.08
24076000,-93.85
24085000,-91.27
24094000,-92.3
24103000,-92.63
24112000,-92.72
24121000,-92.3
24130000,-93.27
24139000,-92.69
24148000,-91.69
24157000,-93.05
24166000,-91.93
24175000,-91.46
24184000,-93.05
24193000,-92.43
24202000,-92.17
24211000,-94.23
24220000,-92.87
24229000,-91.23
24238000,-92.87
24247000,-91.77
24256000,-93.43
24265000,-92.69
24274000,-92.52
24283000,-93.43
24292000,-91.85
24301000,-93.23
24310000,-92.17
24319000,-92.77
24328000,-92.77
24337000,-92.52
24346000,-93.52
24355000,-90.34
24364000,-94.02
24373000,-92.17
24382000,-92.68
24391000,-91.46
24400000,-92.26
24409000,-94.02
24418000,-93.23
24427000,-93.43
24436000,-92.77
24445000,-94.02
24454000,-92.52
24463000,-90.51
24472000,-91.69
24481000,-91.85
24490000,-91.46
24499000,-90.8
24508000,-92
24517000,-92.09
24526000,-93.14
24535000,-91.38
24544000,-93.42
24553000,-93.42
24562000,-92.34
24571000,-92.68
24580000,-92.77
24589000,-91.61
24598000,-93.81
24607000,-93.71
24616000,-92.59
24625000,-93.71
24634000,-93.14
24643000,-91.61
24652000,-93.04
24661000,-92.96
24670000,-93.04
24679000,-91.53
24688000,-91.84
24697000,-90.94
24706000,-91.77
24715000,-93.81
24724000,-91.16
24733000,-94.01
24742000,-92.26
24751000,-93.04
24760000,-94.23
24769000,-93.23
24778000,-92.17
24787000,-92.77
24796000,-92.77
24805000,-91.53
24814000,-92.68
24823000,-93.42
24832000,-92.51
24841000,-92.51
24850000,-90.93
24859000,-92.26
24868000,-92.87
24877000,-92.77
24886000,-92.87
24895000,-93.42
24904000,-93.62
24913000,-92
24922000,-91.84
24931000,-94.12
24940000,-91.38
24949000,-91.92
24958000,-92.34
24967000,-93.62
24976000,-93.42
24985000,-92.17
24994000,-92.17
25003000,-91.92
25012000,-93.14
25021000,-91.6
25030000,-92.34
25039000,-93.23
25048000,-90.72
25057000,-92.34
25066000,-93.04
25075000,-92.34
25084000,-93.14
25093000,-92.17
25102000,-92.42
25111000,-92.86
25120000,-92
25129000,-92.59
25138000,-92
25147000,-91.92
25156000,-92.33
25165000,-89.57
25174000,-92.17
25183000,-92.09
25192000,-93.14
25201000,-92.51
25210000,-91.84
25219000,-92.09
25228000,-92
25237000,-93.52
25246000,-91.84
25255000,-90.93
25264000,-93.42
25273000,-92.42
25282000,-91.84
25291000,-90.86
25300000,-91.45
25309000,-93.42
25318000,-92.68
25327000,-93.04
25336000,-90.69
25345000,-91.96
25354000,-92.3
25363000,-92.64
25372000,-92.64
25381000,-92.3
25390000,-92.39
25399000,-92.48
25408000,-92.56
25417000,-91.34
25426000,-93
25435000,-91.42
25444000,-91.81
25453000,-93.58
25462000,-91.34
25471000,-92.92
25480000,-92.64
25489000,-92.22
25498000,-92.73
25507000,-93
25516000,-92.05
25525000,-93.58
25534000,-91.96
25543000,-92.13
25552000,-92.47
25561000,-93.19
25570000,-93.1
25579000,-93.38
25588000,-92.13
25597000,-92.73
25606000,-92.73
25615000,-91.96
25624000,-93
25633000,-91.96
25642000,-93
25651000,-93.77
25660000,-92.91
25669000,-92.13
25678000,-92.55
25687000,-90.61
25696000,-92.55
25705000,-91.8
25714000,-94.18
25723000,-91.19
25732000,-92.3
25741000,-91.96
25750000,-91.34
25759000,-92.64
25768000,-92.83
25777000,-92.64
25786000,-91.72
25795000,-93.67
25804000,-91.88
25813000,-90.47
25822000,-91.18
25831000,-92.05
25840000,-92.64
25849000,-92.73
25858000,-92.73
25867000,-90.61
25876000,-92.64
25885000,-91.8
25894000,-93.87
25903000,-91.56
25912000,-93.97
25921000,-92.33
25930000,-91.37
25939000,-91.52
25948000,-91.07
25957000,-92.95
25966000,-93.03
25975000,-91.6
25984000,-92.25
25993000,-93.22
26002000,-92.16
26011000,-92.67
26020000,-92.5
26029000,-92.08
26038000,-93.8
26047000,-91.07
26056000,-93.22
26065000,-92.86
26074000,-92.67
26083000,-91.6
26092000,-92.67
26101000,-90.85
26110000,-92.67
26119000,-93.13
26128000,-92.67
26137000,-90.57
26146000,-92.58
26155000,-93.31
26164000,-91.52
26173000,-92.41
26182000,-93.91
26191000,-92.86
26200000,-90.64
26209000,-92.76
26218000,-93.41
26227000,-92.86
26236000,-91.75
26245000,-93.03
26254000,-91.51
26263000,-94.21
26272000,-91.99
26281000,-93.31
26290000,-93.6
26299000,-93.6
26308000,-92.67
26317000,-92.85
26326000,-92.67
26335000,-93.03
26344000,-93.03
26353000,-92.16
26362000,-92.94
26371000,-94.21
26380000,-91.44
26389000,-93.6
26398000,-92.5
26407000,-93.22
26416000,-92.85
26425000,-92.16
26434000,-92.32
26443000,-93.41
26452000,-91.83
26461000,-92.85
26470000,-93.31
26479000,-93.03
26488000,-91.36
26497000,-93.8
26506000,-92.16
26515000,-93.6
26524000,-94
26533000,-93.41
26542000,-91.99
26551000,-91.75
26560000,-92.32
26569000,-92.5
26578000,-92.76
26587000,-93.21
26596000,-92.85
26605000,-92.94
26614000,-92.16
26623000,-92.85
26632000,-93.03
26641000,-92.41
26650000,-92.5
26659000,-92.32
26668000,-94
26677000,-90.64
26686000,-92.24
26695000,-93.6
26704000,-92.15
26713000,-91.83
26722000,-92.58
26731000,-92.58
26740000,-92.15
26749000,-93.31
26758000,-92.41
26767000,-93.6
26776000,-93.41
26785000,-93.03
26794000,-92.67
26803000,-93.21
26812000,-92.85
26821000,-91.51
26830000,-93.31
26839000,-92.24
26848000,-92.94
26857000,-93.41
26866000,-92.32
26875000,-93.41
26884000,-93.79
26893000,-91.83
26902000,-92.58
26911000,-91.91
26920000,-93.12
26929000,-92.15
26938000,-92.07
26947000,-92.5
26956000,-93.03
26965000,-91.99
26974000,-91.83
26983000,-93.21
26992000,-92.15
27001000,-92.15
27010000,-93.12
27019000,-92.58
27028000,-92.41
27037000,-91.75
27046000,-93.31
27055000,-92.58
27064000,-91.98
27073000,-94
27082000,-92.85
27091000,-92.66
27100000,-93.4
27109000,-92.32
27118000,-93.31
27127000,-92.57
27136000,-92.57
27145000,-93.4
27154000,-92.07
27163000,-91.36
27172000,-92.41
27181000,-90.49
27190000,-92.75
27199000,-92.07
27208000,-91.51
27217000,-91.51
27226000,-91.67
27235000,-92.07
27244000,-92.85
27253000,-93.99
27262000,-90.7
27271000,-92.75
27280000,-94.1
27289000,-92.15
27298000,-92.32
27307000,-93.4
27316000,-92.93
27325000,-91.98
27334000,-93.02
27343000,-92.75
27352000,-92.15
27361000,-93.3
27370000,-91.66
27379000,-92.41
27388000,-91.98
27397000,-91.66
27406000,-92.15
27415000,-93.5
27424000,-93.02
27433000,-93.79
27442000,-93.21
27451000,-92.4
27460000,-91.82
27469000,-91.66
27478000,-90.63
27487000,-93.69
27496000,-91.5
27505000,-91.98
27514000,-91.74
27523000,-92.66
27532000,-92.24
27541000,-93.02
27550000,-92.49
27559000,-93.99
27568000,-93.79
27577000,-92.75
27586000,-93.21
27595000,-92.49
27604000,-92.66
27613000,-92.24
27622000,-92.66
27631000,-93.21
27640000,-91.74
27649000,-93.4
27658000,-93.4
27667000,-92.93
27676000,-92.75
27685000,-92.15
27694000,-93.59
27703000,-92.57
27712000,-91.13
27721000,-90.98
27730000,-92.4
27739000,-92.31
27748000,-92.75
27757000,-92.66
27766000,-93.59
27775000,-93.4
27784000,-92.31
27793000,-91.58
27802000,-93.59
27811000,-92.31
27820000,-92.66
27829000,-92.84
27838000,-92.49
27847000,-92.15
27856000,-93.4
27865000,-92.15
27874000,-91.66
27883000,-93.2
27892000,-93.12
27901000,-92.66
27910000,-91.58
27919000,-92.07
27928000,-91.98
27937000,-92.93
27946000,-91.2
27955000,-92.66
27964000,-92.84
27973000,-91.5
27982000,-91.82
27991000,-92.49
28000000,-94.52
28009000,-92.66
28018000,-92.66
28027000,-93.3
28036000,-91.98
28045000,-92.23
28054000,-92.66
28063000,-93.2
28072000,-92.93
28081000,-91.66
28090000,-92.66
28099000,-92.84
28108000,-92.31
28117000,-91.58
28126000,-94.09
28135000,-92.31
28144000,-91.5
28153000,-92.23
28162000,-91.2
28171000,-92.93
28180000,-91.43
28189000,-91.82
28198000,-91.2
28207000,-92.84
28216000,-92.84
28225000,-91.82
28234000,-93.3
28243000,-92.65
28252000,-91.66
28261000,-91.97
28270000,-92.65
28279000,-93.49
28288000,-91.66
28297000,-92.62
28306000,-92.53
28315000,-92.62
28324000,-92.45
28333000,-91.31
28342000,-93.55
28351000,-93.75
28360000,-93.17
28369000,-93.36
28378000,-91.86
28387000,-93.17
28396000,-92.62
28405000,-91.09
28414000,-93.65
28423000,-92.53
28432000,-92.28
28441000,-93.85
28450000,-91.86
28459000,-93.36
28468000,-94.16
28477000,-92.2
28486000,-92.62
28495000,-93.55
28504000,-91.62
28513000,-93.95
28522000,-92.11
28531000,-93.85
28540000,-92.27
28549000,-92.45
28558000,-91.78
28567000,-92.8
28576000,-93.36
28585000,-92.89
28594000,-92.11
28603000,-92.45
28612000,-92.8
28621000,-92.8
28630000,-93.55
28639000,-92.62
28648000,-92.11
28657000,-92.45
28666000,-92.8
28675000,-93.36
28684000,-92.19
28693000,-93.08
28702000,-92.8
28711000,-92.62
28720000,-92.45
28729000,-91.39
28738000,-89.63
28747000,-90.45
28756000,-91.62
28765000,-90.52
28774000,-91.16
28783000,-90.66
28792000,-92.98
28801000,-93.26
28810000,-92.8
28819000,-92.8
28828000,-94.59
28837000,-92.98
28846000,-92.98
28855000,-92.8
28864000,-91.94
28873000,-93.26
28882000,-92.8
28891000,-93.16
28900000,-92
28909000,-92.68
28918000,-91.38
28927000,-93.33
28936000,-90.72
28945000,-92.77
28954000,-91.84
28963000,-93.42
28972000,-92.26
28981000,-92.34
28990000,-91.38
28999000,-93.04
29008000,-93.23
29017000,-91.76
29026000,-92.34
29035000,-93.23
29044000,-92.43
29053000,-91.68
29062000,-91.92
29071000,-91.84
29080000,-92.68
29089000,-92.59
29098000,-92.17
29107000,-93.62
29116000,-92.87
29125000,-91.76
29134000,-93.42
29143000,-91.84
29152000,-93.61
29161000,-90.2
29170000,-92.17
29179000,-93.32
29188000,-91.52
29197000,-91.68
29206000,-92.09
29215000,-93.81
29224000,-94.12
29233000,-91.22
29242000,-90.07
29251000,-92.17
29260000,-91.3
29269000,-91.92
29278000,-93.91
29287000,-92.68
29296000,-92.86
29305000,-93.52
29314000,-93.04
29323000,-93.81
29332000,-92.95
29341000,-92.86
29350000,-93.42
29359000,-92.09
29368000,-91.52
29377000,-91.15
29386000,-94.12
29395000,-91.92
29404000,-90.86
29413000,-93.22
29422000,-92.51
29431000,-92.68
29440000,-92.25
29449000,-92.86
29458000,-92
29467000,-93.04
29476000,-92.05
29485000,-93.58
29494000,-92.48
29503000,-92.83
29512000,-93.48
29521000,-92.83
29530000,-92.83
29539000,-93.19
29548000,-94.08
29557000,-91.27
29566000,-92.3
29575000,-93
29584000,-91.65
29593000,-92.22
29602000,-92.83
29611000,-91.42
29620000,-92.73
29629000,-93
29638000,-90.4
29647000,-90.61
29656000,-92.22
29665000,-91.96
29674000,-90.76
29683000,-92.05
29692000,-93.88
29701000,-91.19
29710000,-91.57
29719000,-91.65
29728000,-92.39
29737000,-91.57
29746000,-91.49
29755000,-93.1
29764000,-93.19
29773000,-91.96
29782000,-94.4
29791000,-91.64
29800000,-93.19
29809000,-92.47
29818000,-93.38
29827000,-93.19
29836000,-91.88
29845000,-91.8
29854000,-92.64
29863000,-91.8
29872000,-92.13
29881000,-91.34
29890000,-92.13
29899000,-91.64
29908000,-90.96
29917000,-92.3
29926000,-93.38
29935000,-91.96
29944000,-93.1
29953000,-91.72
29962000,-90.29
29971000,-87.85
29980000,-81.43
29989000,-69.09
29998000,-46.53
30000000,-59.91
