Frequency (Hz),Amplitude (dBm)
5000000,-51.04
5009000,-71.03
5018000,-83.41
5027000,-89.21
5036000,-91.48
5045000,-91.2
5054000,-89.66
5063000,-90.76
5072000,-92.45
5081000,-91.77
5090000,-92.07
5099000,-92.45
5108000,-90.38
5117000,-92.78
5126000,-91.92
5135000,-92.53
5144000,-91.03
5153000,-90.64
5162000,-91.7
5171000,-91.48
5180000,-91.77
5189000,-91.2
5198000,-91.62
5207000,-90.38
5216000,-92.86
5225000,-91.2
5234000,-91.48
5243000,-91.77
5252000,-92.14
5261000,-91.34
5270000,-92.78
5279000,-92.78
5288000,-91.34
5297000,-91.02
5306000,-91.77
5315000,-92.21
5324000,-90.26
5333000,-91.02
5342000,-91.99
5351000,-90.89
5360000,-91.69
5369000,-92.61
5378000,-91.99
5387000,-93.2
5396000,-91.2
5405000,-91.55
5414000,-90.5
5423000,-91.02
5432000,-90.76
5441000,-92.06
5450000,-90.89
5459000,-91.91
5468000,-92.86
5477000,-91.62
5486000,-91.62
5495000,-92.61
5504000,-91.48
5513000,-90.63
5522000,-90.63
5531000,-90.38
5540000,-91.91
5549000,-91.41
5558000,-92.21
5567000,-92.37
5576000,-91.91
5585000,-92.21
5594000,-90.76
5603000,-91.13
5612000,-93.46
5621000,-93.02
5630000,-91.91
5639000,-91.02
5648000,-91.76
5657000,-91.76
5666000,-90.89
5675000,-92.94
5684000,-91.84
5693000,-92.69
5702000,-91.48
5711000,-90.5
5720000,-91.48
5729000,-90.5
5738000,-91.99
5747000,-91.48
5756000,-91.84
5765000,-91.55
5774000,-93.11
5783000,-90.13
5792000,-91.55
5801000,-91.76
5810000,-91.34
5819000,-91.02
5828000,-93.2
5837000,-92.14
5846000,-92.94
5855000,-91.76
5864000,-89.65
5873000,-91.94
5882000,-92.4
5891000,-91.94
5900000,-91.44
5909000,-90.16
5918000,-91.72
5927000,-91.37
5936000,-91.65
5945000,-92.09
5954000,-92.72
5963000,-91.05
5972000,-92.56
5981000,-91.94
5990000,-92.09
5999000,-90.92
6008000,-91.51
6017000,-92.88
6026000,-91.44
6035000,-93.23
6044000,-91.3
6053000,-91.65
6062000,-93.14
6071000,-92.24
6080000,-91.23
6089000,-91.94
6098000,-93.39
6107000,-91.22
6116000,-91.51
6125000,-92.88
6134000,-90.03
6143000,-91.94
6152000,-92.72
6161000,-91.51
6170000,-91.79
6179000,-91.22
6188000,-92.09
6197000,-92.88
6206000,-90.92
6215000,-93.23
6224000,-92.09
6233000,-92.97
6242000,-91.94
6251000,-93.23
6260000,-92.71
6269000,-93.14
6278000,-90.91
6287000,-92.09
6296000,-90.66
6305000,-93.23
6314000,-92.88
6323000,-92.02
6332000,-92.71
6341000,-91.05
6350000,-92.17
6359000,-92.71
6368000,-92.71
6377000,-88.7
6386000,-91.79
6395000,-92.71
6404000,-92.88
6413000,-92.63
6422000,-91.05
6431000,-92.4
6440000,-90.91
6449000,-91.5
6458000,-90.66
6467000,-92.24
6476000,-92.8
6485000,-91.36
6494000,-90.78
6503000,-92.02
6512000,-90.91
6521000,-92.39
6530000,-91.94
6539000,-92.63
6548000,-92.71
6557000,-91.94
6566000,-93.05
6575000,-92.55
6584000,-89.68
6593000,-92.97
6602000,-92.47
6611000,-92.16
6620000,-91.94
6629000,-91.79
6638000,-92.39
6647000,-91.29
6656000,-91.64
6665000,-90.52
6674000,-92.55
6683000,-92.23
6692000,-90.78
6701000,-92.63
6710000,-92.47
6719000,-91.78
6728000,-90.52
6737000,-92.88
6746000,-93.3
6755000,-93.22
6764000,-92.39
6773000,-92.16
6782000,-92.08
6791000,-93.05
6800000,-93.57
6809000,-91.57
6818000,-91.64
6827000,-91.29
6836000,-91.57
6845000,-92.97
6854000,-92.47
6863000,-89.34
6872000,-91.64
6881000,-92.63
6890000,-91.78
6899000,-92.31
6908000,-91.71
6917000,-92.63
6926000,-91.15
6935000,-91.04
6944000,-91.22
6953000,-92.88
6962000,-92.31
6971000,-93.75
6980000,-90.03
6989000,-91.93
6998000,-91.64
7007000,-92.23
7016000,-92.88
7025000,-92.16
7034000,-90.15
7043000,-91.71
7052000,-90.91
7061000,-92.16
7070000,-91.64
7079000,-92.63
7088000,-91.04
7097000,-93.39
7106000,-91.93
7115000,-90.78
7124000,-91.64
7133000,-91.36
7142000,-91.15
7151000,-93.22
7160000,-92.08
7169000,-90.78
7178000,-91.22
7187000,-93.47
7196000,-93.57
7205000,-90.91
7214000,-93.04
7223000,-91.64
7232000,-92.79
7241000,-93.04
7250000,-92.87
7259000,-93.13
7268000,-93.04
7277000,-92.01
7286000,-93.22
7295000,-91.64
7304000,-90.4
7313000,-90.77
7322000,-93.22
7331000,-90.39
7340000,-92.71
7349000,-90.02
7358000,-92.55
7367000,-92.08
7376000,-91.64
7385000,-92.39
7394000,-91.93
7403000,-91.64
7412000,-93.22
7421000,-92.01
7430000,-92.23
7439000,-92.63
7448000,-92.87
7457000,-92.16
7466000,-91.71
7475000,-92.23
7484000,-91.57
7493000,-91.35
7502000,-90.65
7511000,-91.04
7520000,-92.01
7529000,-91.35
7538000,-91.71
7547000,-92.87
7556000,-92.23
7565000,-92.08
7574000,-92.7
7583000,-93.66
7592000,-91.5
7601000,-92.39
7610000,-90.9
7619000,-92.87
7628000,-91.78
7637000,-92.16
7646000,-90.33
7655000,-91.87
7664000,-91.43
7673000,-91.72
7682000,-93.32
7691000,-90.84
7700000,-92.81
7709000,-92.16
7718000,-91.94
7727000,-92.16
7736000,-91.43
7745000,-93.06
7754000,-91.36
7763000,-92.01
7772000,-91.29
7781000,-91.71
7790000,-91.57
7799000,-92.32
7808000,-92.24
7817000,-91.57
7826000,-92.48
7835000,-92.64
7844000,-91.36
7853000,-92.32
7862000,-92.97
7871000,-92.09
7880000,-92.64
7889000,-92.4
7898000,-91.79
7907000,-92.32
7916000,-91.29
7925000,-92.4
7934000,-93.59
7943000,-92.97
7952000,-90.2
7961000,-90.58
7970000,-90.71
7979000,-92.64
7988000,-93.32
7997000,-93.5
8006000,-92.97
8015000,-92.16
8024000,-92.09
8033000,-93.15
8042000,-93.15
8051000,-92.97
8060000,-92.09
8069000,-91.15
8078000,-92.16
8087000,-93.15
8096000,-92.81
8105000,-93.23
8114000,-92.01
8123000,-92.4
8132000,-92.64
8141000,-93.5
8150000,-91.71
8159000,-91.08
8168000,-92.56
8177000,-93.15
8186000,-92.48
8195000,-93.23
8204000,-93.23
8213000,-91.71
8222000,-92.97
8231000,-92.7
8240000,-92.22
8249000,-91.42
8258000,-93.74
8267000,-93.21
8276000,-92.15
8285000,-92.79
8294000,-92.07
8303000,-91.63
8312000,-91.56
8321000,-91.85
8330000,-93.21
8339000,-92.22
8348000,-92.07
8357000,-92.86
8366000,-92.86
8375000,-92.7
8384000,-91.14
8393000,-91.85
8402000,-91.7
8411000,-94.02
8420000,-92
8429000,-93.03
8438000,-91.77
8447000,-91.49
8456000,-93.03
8465000,-92.95
8474000,-92.86
8483000,-91.63
8492000,-91.42
8501000,-92.07
8510000,-91.21
8519000,-93.56
8528000,-92.54
8537000,-94.02
8546000,-91.13
8555000,-93.29
8564000,-92
8573000,-92.7
8582000,-92.38
8591000,-93.37
8600000,-93.21
8609000,-93.21
8618000,-92.86
8627000,-91.85
8636000,-93.12
8645000,-92.22
8654000,-93.03
8663000,-90.01
8672000,-92.69
8681000,-93.03
8690000,-92.54
8699000,-91.85
8708000,-93.37
8717000,-92.62
8726000,-91.63
8735000,-91.2
8744000,-92.38
8753000,-92.69
8762000,-93.37
8771000,-92.07
8780000,-92.54
8789000,-91.49
8798000,-92.54
8807000,-93.21
8816000,-90.76
8825000,-92.38
8834000,-92.5
8843000,-93.17
8852000,-92.19
8861000,-93
8870000,-92.5
8879000,-93.17
8888000,-92.5
8897000,-93
8906000,-91.74
8915000,-92.34
8924000,-92.5
8933000,-92.34
8942000,-93.7
8951000,-92.19
8960000,-91.74
8969000,-93.25
8978000,-90.73
8987000,-92.04
8996000,-93.34
9005000,-92.66
9014000,-93.7
9023000,-91.81
9032000,-91.38
9041000,-92.42
9050000,-92.92
9059000,-92.34
9068000,-92.83
9077000,-91.59
9086000,-93.53
9095000,-92.5
9104000,-92.03
9113000,-93.52
9122000,-91.73
9131000,-93.34
9140000,-92.18
9149000,-92.11
9158000,-91.73
9167000,-92.92
9176000,-91.59
9185000,-93.25
9194000,-92.75
9203000,-93.7
9212000,-92.03
9221000,-92.26
9230000,-93.34
9239000,-92.11
9248000,-92.26
9257000,-91.59
9266000,-92.66
9275000,-92.5
9284000,-90.35
9293000,-92.5
9302000,-92.26
9311000,-90.86
9320000,-92.18
9329000,-93.7
9338000,-92.03
9347000,-92.75
9356000,-91.96
9365000,-93.43
9374000,-92.99
9383000,-91.96
9392000,-91.88
9401000,-92.42
9410000,-92.83
9419000,-91.78
9428000,-91.56
9437000,-92.15
9446000,-90.83
9455000,-91.85
9464000,-92.31
9473000,-92.15
9482000,-92.31
9491000,-92.63
9500000,-92.71
9509000,-93.14
9518000,-93.05
9527000,-93.31
9536000,-91.7
9545000,-93.22
9554000,-92.15
9563000,-92.71
9572000,-93.95
9581000,-91.14
9590000,-93.49
9599000,-91.42
9608000,-90.19
9617000,-92.31
9626000,-92.39
9635000,-90.69
9644000,-91.06
9653000,-92.63
9662000,-92.63
9671000,-92.31
9680000,-92.15
9689000,-92.15
9698000,-92.15
9707000,-93.49
9716000,-92.47
9725000,-92.79
9734000,-92.31
9743000,-92.31
9752000,-93.49
9761000,-91.85
9770000,-93.14
9779000,-91.7
9788000,-92.88
9797000,-93.05
9806000,-89.94
9815000,-92.15
9824000,-91.13
9833000,-92.31
9842000,-92.96
9851000,-92.79
9860000,-91.56
9869000,-91.85
9878000,-91.56
9887000,-92.31
9896000,-92.54
9905000,-90.44
9914000,-92.79
9923000,-90.57
9932000,-92.15
9941000,-91.56
9950000,-92.88
9959000,-91.27
9968000,-92
9977000,-89.59
9986000,-81
9995000,-58.19
10004000,-56.6
10013000,-81.29
10022000,-88.64
10031000,-90.72
10040000,-91.16
10049000,-92.99
10058000,-92.65
10067000,-92.26
10076000,-92.74
10085000,-90.6
10094000,-91.88
10103000,-92.82
10112000,-93.69
10121000,-91.73
10130000,-90.6
10139000,-92.74
10148000,-92.33
10157000,-93.79
10166000,-92.57
10175000,-93.42
10184000,-92.91
10193000,-92.74
10202000,-91.73
10211000,-91.88
10220000,-93.79
10229000,-92.1
10238000,-93.16
10247000,-91.73
10256000,-90.72
10265000,-93.52
10274000,-92.33
10283000,-91.88
10292000,-92.33
10301000,-90.6
10310000,-93.6
10319000,-93.52
10328000,-93.16
10337000,-93.16
10346000,-93.24
10355000,-92.65
10364000,-92.49
10373000,-93.16
10382000,-91.09
10391000,-92.99
10400000,-93.88
10409000,-93.69
10418000,-93.33
10427000,-93.07
10436000,-91.87
10445000,-92.49
10454000,-91.3
10463000,-90.98
10472000,-92.82
10481000,-92.98
10490000,-92.1
10499000,-92.91
10508000,-93.16
10517000,-92.57
10526000,-90.72
10535000,-93.33
10544000,-93.88
10553000,-92.65
10562000,-91.44
10571000,-93.24
10580000,-94.46
10589000,-91.87
10598000,-93.18
10607000,-92.04
10616000,-93.1
10625000,-93.63
10634000,-92.75
10643000,-92.19
10652000,-93.1
10661000,-92.75
10670000,-91.17
10679000,-91.1
10688000,-91.66
10697000,-93.01
10706000,-93.27
10715000,-92.04
10724000,-93.27
10733000,-93.45
10742000,-91.96
10751000,-93.81
10760000,-90.79
10769000,-91.1
10778000,-93.63
10787000,-91.1
10796000,-91.96
10805000,-93.01
10814000,-92.59
10823000,-90.79
10832000,-92.67
10841000,-92.19
10850000,-93.26
10859000,-91.81
10868000,-92.92
10877000,-91.31
10886000,-93.45
10895000,-92.43
10904000,-93.63
10913000,-92.67
10922000,-91.38
10931000,-93.26
10940000,-91.38
10949000,-93.45
10958000,-92.43
10967000,-92.84
10976000,-93.26
10985000,-91.66
10994000,-90.78
11003000,-92.75
11012000,-92.5
11021000,-92.84
11030000,-93.26
11039000,-92.92
11048000,-92.04
11057000,-90.78
11066000,-92.75
11075000,-91.66
11084000,-91.96
11093000,-93.62
11102000,-92.11
11111000,-91.45
11120000,-91.23
11129000,-92.5
11138000,-91.37
11147000,-92.92
11156000,-92.27
11165000,-91.96
11174000,-91.81
11183000,-92.27
11192000,-93.09
11201000,-93.17
11210000,-90.78
11219000,-93.26
11228000,-90.92
11237000,-91.66
11246000,-92.26
11255000,-92.92
11264000,-92.18
11273000,-92.26
11282000,-91.37
11291000,-91.96
11300000,-94
11309000,-93
11318000,-92.58
11327000,-92.84
11336000,-93.53
11345000,-90.91
11354000,-93.62
11363000,-91.66
11372000,-92.34
11381000,-90.78
11390000,-92.58
11399000,-90.78
11408000,-94.1
11417000,-91.88
11426000,-92.1
11435000,-92.1
11444000,-93.09
11453000,-93.35
11462000,-93.26
11471000,-92.03
11480000,-92.92
11489000,-92.42
11498000,-92.84
11507000,-93
11516000,-92.34
11525000,-91.73
11534000,-94.39
11543000,-92.67
11552000,-91.23
11561000,-91.65
11570000,-93.26
11579000,-92.03
11588000,-91.44
11597000,-91.44
11606000,-92.91
11615000,-92.58
11624000,-92.58
11633000,-93
11642000,-93
11651000,-89.66
11660000,-92.42
11669000,-92.83
11678000,-92.42
11687000,-92.18
11696000,-91.51
11705000,-91.23
11714000,-91.8
11723000,-92.91
11732000,-93.17
11741000,-91.51
11750000,-93.35
11759000,-93.09
11768000,-92.03
11777000,-93.15
11786000,-92.48
11795000,-92.97
11804000,-92.89
11813000,-93.32
11822000,-93.32
11831000,-91.15
11840000,-92.4
11849000,-93.86
11858000,-94.45
11867000,-93.5
11876000,-92.73
11885000,-92.16
11894000,-93.15
11903000,-91.57
11912000,-93.32
11921000,-90.97
11930000,-92.48
11939000,-91.57
11948000,-93.96
11957000,-92.48
11966000,-93.68
11975000,-93.68
11984000,-93.15
11993000,-92.97
12002000,-92.73
12011000,-93.59
12020000,-91.43
12029000,-91.22
12038000,-92.64
12047000,-93.5
12056000,-92.32
12065000,-93.4
12074000,-91.86
12083000,-92.01
12092000,-92.97
12101000,-94.25
12110000,-92.4
12119000,-92.16
12128000,-92.8
12137000,-92.8
12146000,-93.15
12155000,-92.01
12164000,-92.8
12173000,-93.5
12182000,-93.96
12191000,-92.89
12200000,-93.77
12209000,-92.4
12218000,-94.15
12227000,-92.89
12236000,-93.5
12245000,-93.31
12254000,-93.23
12263000,-93.15
12272000,-92.64
12281000,-91.43
12290000,-93.23
12299000,-93.06
12308000,-92.72
12317000,-92.24
12326000,-91.5
12335000,-91.43
12344000,-93.06
12353000,-93.68
12362000,-92.01
12371000,-92.01
12380000,-92.33
12389000,-92.26
12398000,-92.41
12407000,-93.49
12416000,-93.31
12425000,-93.49
12434000,-92
12443000,-91.85
12452000,-92
12461000,-91.56
12470000,-92.63
12479000,-93.49
12488000,-92.55
12497000,-91.49
12506000,-92
12515000,-91.56
12524000,-92.96
12533000,-92
12542000,-92.23
12551000,-93.67
12560000,-93.67
12569000,-92.31
12578000,-92.08
12587000,-92.63
12596000,-92.15
12605000,-92.57
12614000,-93.16
12623000,-92.02
12632000,-93.16
12641000,-92.91
12650000,-90.77
12659000,-93.99
12668000,-92.25
12677000,-93.61
12686000,-93.16
12695000,-92.09
12704000,-92.02
12713000,-91.5
12722000,-92.83
12731000,-93.43
12740000,-93.34
12749000,-91.87
12758000,-90.9
12767000,-92.74
12776000,-93.61
12785000,-92.9
12794000,-91.36
12803000,-93.43
12812000,-92.9
12821000,-92.57
12830000,-93.25
12839000,-91.79
12848000,-92.66
12857000,-94.38
12866000,-92.57
12875000,-91.64
12884000,-92.74
12893000,-91.5
12902000,-92.74
12911000,-92.41
12920000,-91.64
12929000,-92.25
12938000,-92.41
12947000,-92.33
12956000,-92.57
12965000,-91.67
12974000,-92.77
12983000,-90.29
12992000,-91.75
13001000,-92.69
13010000,-92.28
13019000,-92.69
13028000,-92.28
13037000,-92.05
13046000,-92.93
13055000,-90.67
13064000,-93.02
13073000,-93.11
13082000,-92.44
13091000,-93.11
13100000,-93.46
13109000,-92.6
13118000,-92.28
13127000,-93.11
13136000,-94.61
13145000,-92.36
13154000,-92.44
13163000,-94.11
13172000,-92.44
13181000,-91.75
13190000,-92.28
13199000,-94.61
13208000,-92.52
13217000,-92.52
13226000,-91.82
13235000,-91.9
13244000,-92.68
13253000,-93.11
13262000,-92.52
13271000,-93.19
13280000,-92.52
13289000,-93.46
13298000,-92.93
13307000,-92.93
13316000,-93.64
13325000,-92.28
13334000,-92.76
13343000,-92.76
13352000,-93.64
13361000,-91.82
13370000,-92.76
13379000,-93.11
13388000,-91.39
13397000,-93.46
13406000,-92.76
13415000,-93.11
13424000,-91.75
13433000,-91.1
13442000,-92.28
13451000,-90.66
13460000,-90.93
13469000,-92.28
13478000,-92.93
13487000,-93.11
13496000,-92.76
13505000,-93.11
13514000,-92.36
13523000,-93.92
13532000,-93.46
13541000,-92.59
13550000,-92.59
13559000,-93.33
13568000,-91.94
13577000,-92.99
13586000,-91.72
13595000,-93.07
13604000,-93.33
13613000,-92.73
13622000,-92.73
13631000,-93.43
13640000,-92.73
13649000,-94.18
13658000,-92.4
13667000,-91.72
13676000,-92.9
13685000,-93.6
13694000,-92.17
13703000,-93.98
13712000,-92.56
13721000,-91.79
13730000,-91.72
13739000,-92.73
13748000,-91.49
13757000,-90.9
13766000,-93.7
13775000,-93.24
13784000,-93.24
13793000,-92.56
13802000,-92.65
13811000,-92.82
13820000,-92.82
13829000,-92.73
13838000,-93.24
13847000,-93.33
13856000,-92.82
13865000,-93.07
13874000,-93.24
13883000,-94.37
13892000,-93.6
13901000,-92.98
13910000,-93.07
13919000,-94.57
13928000,-92.73
13937000,-92.24
13946000,-93.42
13955000,-92.73
13964000,-92.65
13973000,-91.14
13982000,-91.49
13991000,-93.15
14000000,-93.6
14009000,-93.7
14018000,-92.48
14027000,-93.33
14036000,-93.33
14045000,-91.71
14054000,-92.32
14063000,-93.6
14072000,-93.15
14081000,-92.73
14090000,-93.07
14099000,-92.73
14108000,-92.56
14117000,-92.4
14126000,-93.42
14135000,-92.98
14144000,-93.33
14153000,-92.78
14162000,-93.12
14171000,-90.09
14180000,-92.37
14189000,-92.37
14198000,-91.39
14207000,-93.04
14216000,-92.86
14225000,-89.04
14234000,-92.78
14243000,-93.66
14252000,-90.86
14261000,-91.83
14270000,-92.05
14279000,-92.37
14288000,-89.49
14297000,-93.21
14306000,-92.95
14315000,-91.98
14324000,-94.24
14333000,-93.21
14342000,-93.39
14351000,-91.6
14360000,-92.05
14369000,-92.69
14378000,-93.95
14387000,-91.6
14396000,-92.37
14405000,-93.04
14414000,-93.2
14423000,-92.61
14432000,-92.53
14441000,-93.66
14450000,-94.14
14459000,-92.95
14468000,-91.39
14477000,-93.39
14486000,-92.13
14495000,-93.95
14504000,-92.53
14513000,-93.12
14522000,-93.04
14531000,-92.37
14540000,-93.2
14549000,-92.52
14558000,-94.14
14567000,-91.03
14576000,-91.39
14585000,-93.48
14594000,-93.85
14603000,-92.52
14612000,-92.44
14621000,-91.68
14630000,-93.48
14639000,-92.44
14648000,-94.53
14657000,-92.95
14666000,-91.9
14675000,-92.95
14684000,-93.66
14693000,-92.13
14702000,-92.36
14711000,-93.48
14720000,-91.98
14729000,-92.44
14738000,-92.61
14747000,-93.45
14756000,-92.58
14765000,-92.04
14774000,-91.38
14783000,-92.51
14792000,-92.51
14801000,-92.75
14810000,-91.89
14819000,-92.92
14828000,-92.43
14837000,-91.66
14846000,-93.01
14855000,-92.19
14864000,-94.1
14873000,-93.1
14882000,-93.17
14891000,-93.81
14900000,-92.11
14909000,-92.92
14918000,-93.45
14927000,-93.01
14936000,-92.19
14945000,-91.45
14954000,-93.09
14963000,-92.27
14972000,-90.15
14981000,-87.07
14990000,-74.12
14999000,-52.43
15008000,-69.26
15017000,-83.64
15026000,-90.78
15035000,-92.58
15044000,-92.42
15053000,-91.96
15062000,-94
15071000,-91.66
15080000,-91.96
15089000,-93.45
15098000,-93.17
15107000,-93.53
15116000,-92.42
15125000,-92.92
15134000,-91.66
15143000,-92.58
15152000,-92.18
15161000,-92.92
15170000,-93.81
15179000,-93.72
15188000,-91.88
15197000,-92.26
15206000,-90.78
15215000,-91.09
15224000,-92.75
15233000,-92.75
15242000,-93.09
15251000,-92.75
15260000,-93.17
15269000,-91.44
15278000,-94
15287000,-92.1
15296000,-92.34
15305000,-92.1
15314000,-92.03
15323000,-92.75
15332000,-91.95
15341000,-92.18
15350000,-91.95
15359000,-93.09
15368000,-91.02
15377000,-92.42
15386000,-93.9
15395000,-93.53
15404000,-92.58
15413000,-94.1
15422000,-91.95
15431000,-91.65
15440000,-93.09
15449000,-92.1
15458000,-91.95
15467000,-92.58
15476000,-92.34
15485000,-93.26
15494000,-93.17
15503000,-93.62
15512000,-94
15521000,-93.44
15530000,-92.26
15539000,-93.8
15548000,-93.26
15557000,-92.42
15566000,-94.29
15575000,-90.91
15584000,-93.8
15593000,-92.1
15602000,-90.52
15611000,-92.91
15620000,-91.09
15629000,-91.95
15638000,-94
15647000,-91.73
15656000,-92.83
15665000,-93
15674000,-94
15683000,-93.09
15692000,-92.58
15701000,-92.83
15710000,-92.1
15719000,-93.26
15728000,-93.09
15737000,-91.23
15746000,-91.23
15755000,-93.44
15764000,-92.58
15773000,-92.58
15782000,-92.5
15791000,-91.51
15800000,-90.64
15809000,-92.58
15818000,-92.66
15827000,-90.39
15836000,-92.58
15845000,-91.37
15854000,-92.58
15863000,-93.17
15872000,-92.34
15881000,-94
15890000,-91.37
15899000,-92.66
15908000,-93.25
15917000,-93.62
15926000,-91.8
15935000,-92.42
15944000,-92.71
15953000,-93.22
15962000,-93.22
15971000,-93.68
15980000,-92.8
15989000,-93.87
15998000,-93.68
16007000,-92.31
16016000,-91.92
16025000,-91.92
16034000,-94.25
16043000,-93.06
16052000,-94.06
16061000,-93.41
16070000,-93.41
16079000,-91.26
16088000,-91.26
16097000,-92.88
16106000,-93.41
16115000,-93.68
16124000,-92.23
16133000,-91.77
16142000,-92.23
16151000,-93.13
16160000,-92.3
16169000,-92.07
16178000,-92.38
16187000,-92.71
16196000,-92.54
16205000,-93.31
16214000,-93.49
16223000,-93.41
16232000,-93.77
16241000,-93.77
16250000,-90.74
16259000,-92.88
16268000,-91.92
16277000,-92.07
16286000,-93.22
16295000,-92.22
16304000,-91.92
16313000,-92.54
16322000,-92.54
16331000,-92.71
16340000,-93.05
16349000,-93.31
16358000,-92.88
16367000,-92.63
16376000,-92.88
16385000,-94.06
16394000,-92.06
16403000,-93.86
16412000,-91.69
16421000,-90.87
16430000,-92.38
16439000,-92.88
16448000,-92.46
16457000,-92.38
16466000,-92.22
16475000,-92.88
16484000,-91.91
16493000,-93.68
16502000,-92.38
16511000,-91.33
16520000,-92.96
16529000,-91.64
16538000,-91.64
16547000,-91.64
16556000,-93.8
16565000,-93.99
16574000,-92.74
16583000,-93.25
16592000,-92.99
16601000,-91.87
16610000,-93.34
16619000,-93.71
16628000,-92.57
16637000,-94.09
16646000,-93.34
16655000,-92.33
16664000,-93.61
16673000,-91.94
16682000,-92.09
16691000,-92.74
16700000,-91.36
16709000,-93.34
16718000,-92.17
16727000,-92.9
16736000,-92.82
16745000,-93.79
16754000,-93.34
16763000,-92.57
16772000,-92.9
16781000,-92.49
16790000,-92.41
16799000,-93.08
16808000,-91.43
16817000,-93.34
16826000,-92.74
16835000,-92.9
16844000,-93.08
16853000,-94.48
16862000,-92.66
16871000,-90.64
16880000,-92.57
16889000,-92.9
16898000,-93.33
16907000,-92.17
16916000,-92.49
16925000,-93.08
16934000,-93.25
16943000,-91.57
16952000,-93.16
16961000,-92.41
16970000,-92.09
16979000,-92.73
16988000,-93.33
16997000,-92.9
17006000,-92.33
17015000,-91.87
17024000,-90.64
17033000,-92.25
17042000,-92.73
17051000,-92.73
17060000,-93.08
17069000,-92.25
17078000,-92.73
17087000,-93.25
17096000,-92.57
17105000,-93.79
17114000,-92.9
17123000,-92.5
17132000,-94.31
17141000,-93.46
17150000,-92.84
17159000,-91.3
17168000,-93.02
17177000,-93.92
17186000,-92.11
17195000,-93.46
17204000,-93.54
17213000,-92.34
17222000,-93.01
17231000,-92.5
17240000,-92.19
17249000,-91.08
17258000,-92.03
17267000,-93.27
17276000,-92.76
17285000,-93.01
17294000,-91.44
17303000,-93.73
17312000,-93.01
17321000,-94.51
17330000,-93.83
17339000,-93.54
17348000,-92.03
17357000,-92.42
17366000,-91.81
17375000,-93.54
17384000,-92.42
17393000,-93.73
17402000,-92.34
17411000,-93.18
17420000,-91.88
17429000,-92.84
17438000,-93.09
17447000,-93.92
17456000,-92.59
17465000,-92.5
17474000,-94.72
17483000,-93.27
17492000,-93.27
17501000,-93.27
17510000,-93.64
17519000,-92.18
17528000,-91.5
17537000,-93.09
17546000,-92.02
17555000,-91.29
17564000,-92.34
17573000,-93.54
17582000,-93.36
17591000,-90.83
17600000,-92.92
17609000,-93.18
17618000,-93.82
17627000,-93.18
17636000,-92.5
17645000,-95.04
17654000,-93.01
17663000,-92.5
17672000,-91.95
17681000,-93.01
17690000,-92.34
17699000,-93.54
17708000,-92.42
17717000,-93.33
17726000,-92.56
17735000,-91.93
17744000,-93.43
17753000,-91.78
17762000,-91.71
17771000,-91.35
17780000,-92.08
17789000,-91.07
17798000,-93.24
17807000,-93.07
17816000,-93.79
17825000,-91.56
17834000,-91.63
17843000,-94.17
17852000,-92.9
17861000,-92.16
17870000,-92.4
17879000,-92.24
17888000,-93.79
17897000,-91.93
17906000,-92.16
17915000,-94.27
17924000,-93.24
17933000,-93.33
17942000,-93.98
17951000,-92.81
17960000,-93.07
17969000,-93.42
17978000,-92.24
17987000,-93.07
17996000,-92.56
18005000,-93.33
18014000,-93.15
18023000,-92.4
18032000,-92.73
18041000,-92.65
18050000,-92.08
18059000,-92.48
18068000,-92.48
18077000,-92.65
18086000,-92.56
18095000,-92.4
18104000,-94.37
18113000,-93.24
18122000,-92.65
18131000,-92.08
18140000,-91.56
18149000,-93.6
18158000,-92.89
18167000,-92.16
18176000,-90.89
18185000,-93.98
18194000,-93.24
18203000,-93.78
18212000,-92.72
18221000,-92.08
18230000,-93.98
18239000,-92.56
18248000,-93.07
18257000,-92.56
18266000,-91.71
18275000,-93.07
18284000,-93.07
18293000,-92.08
18302000,-93.88
18311000,-91.71
18320000,-92.24
18329000,-94.57
18338000,-92.32
18347000,-92.81
18356000,-92.24
18365000,-92.64
18374000,-90.5
18383000,-92.16
18392000,-93.42
18401000,-91.78
18410000,-93.6
18419000,-93.78
18428000,-92.01
18437000,-93.98
18446000,-92.56
18455000,-92.01
18464000,-93.42
18473000,-93.23
18482000,-92.98
18491000,-93.07
18500000,-92.72
18509000,-92.48
18518000,-93.23
18527000,-93.97
18536000,-92.72
18545000,-93.97
18554000,-92.89
18563000,-91.49
18572000,-92.32
18581000,-91.63
18590000,-92.47
18599000,-92.24
18608000,-92.55
18617000,-92.32
18626000,-93.07
18635000,-94.07
18644000,-92.72
18653000,-91.49
18662000,-92.64
18671000,-92.81
18680000,-92.98
18689000,-93.59
18698000,-91.42
18707000,-92.08
18716000,-94.36
18725000,-93.32
18734000,-92.89
18743000,-93.51
18752000,-93.14
18761000,-91.13
18770000,-91.78
18779000,-93.88
18788000,-93.42
18797000,-93.97
18806000,-92.23
18815000,-92.39
18824000,-92.89
18833000,-90.62
18842000,-91.93
18851000,-94.07
18860000,-93.97
18869000,-93.42
18878000,-92.47
18887000,-92.72
18896000,-93.5
18905000,-93.08
18914000,-93
18923000,-93.26
18932000,-92.09
18941000,-93.17
18950000,-93.63
18959000,-92.91
18968000,-93.17
18977000,-93.53
18986000,-92.33
18995000,-92.41
19004000,-93.08
19013000,-93.08
19022000,-92.66
19031000,-93
19040000,-93
19049000,-93.44
19058000,-91.42
19067000,-92.33
19076000,-94.01
19085000,-93.17
19094000,-92.66
19103000,-93.53
19112000,-92.17
19121000,-91.28
19130000,-94.3
19139000,-92.49
19148000,-92.91
19157000,-91.86
19166000,-93.44
19175000,-92.82
19184000,-90.69
19193000,-94.2
19202000,-92.17
19211000,-91.71
19220000,-93.35
19229000,-93.91
19238000,-93.35
19247000,-92.82
19256000,-92.58
19265000,-93
19274000,-92.49
19283000,-93.53
19292000,-92.82
19301000,-92.25
19310000,-92.01
19319000,-93.08
19328000,-92.82
19337000,-92.91
19346000,-93.44
19355000,-91
19364000,-94.92
19373000,-93
19382000,-93.62
19391000,-94.2
19400000,-92.82
19409000,-93.08
19418000,-94.1
19427000,-92.33
19436000,-93.16
19445000,-92.49
19454000,-92.33
19463000,-93.16
19472000,-94.1
19481000,-92.49
19490000,-93
19499000,-91.86
19508000,-92.71
19517000,-91.62
19526000,-92.07
19535000,-93.59
19544000,-91.85
19553000,-92.31
19562000,-94.56
19571000,-92.8
19580000,-91.41
19589000,-93.06
19598000,-92.55
19607000,-92.47
19616000,-91.92
19625000,-92.39
19634000,-93.06
19643000,-91.85
19652000,-93.77
19661000,-94.26
19670000,-92.55
19679000,-94.26
19688000,-92.47
19697000,-91.77
19706000,-93.96
19715000,-93.06
19724000,-93.59
19733000,-92.71
19742000,-93.06
19751000,-92.71
19760000,-93.59
19769000,-93.31
19778000,-93.96
19787000,-93.31
19796000,-92.54
19805000,-91.55
19814000,-93.06
19823000,-93.41
19832000,-93.68
19841000,-92
19850000,-92.71
19859000,-93.06
19868000,-92.07
19877000,-92.54
19886000,-92.8
19895000,-92.63
19904000,-93.22
19913000,-93.5
19922000,-93.05
19931000,-92.71
19940000,-92.38
19949000,-93.77
19958000,-91.92
19967000,-90.88
19976000,-90.88
19985000,-82.72
19994000,-61.58
20003000,-55.7
20012000,-78.06
20021000,-87.84
20030000,-92.07
20039000,-93.77
20048000,-93.41
20057000,-92.54
20066000,-93.05
20075000,-92.15
20084000,-93.05
20093000,-92.97
20102000,-91.47
20111000,-91.62
20120000,-92.97
20129000,-93.31
20138000,-93.77
20147000,-92.07
20156000,-92.22
20165000,-93.22
20174000,-93.96
20183000,-91.77
20192000,-93.86
20201000,-92.38
20210000,-92.54
20219000,-91.99
20228000,-93.77
20237000,-93.22
20246000,-92.63
20255000,-91.76
20264000,-92.96
20273000,-93.22
20282000,-92.88
20291000,-93.58
20300000,-93.77
20309000,-91.4
20318000,-92.54
20327000,-91.4
20336000,-91.99
20345000,-92.96
20354000,-93.13
20363000,-92.8
20372000,-92.63
20381000,-91.91
20390000,-93.96
20399000,-94.55
20408000,-93.22
20417000,-92.71
20426000,-92.71
20435000,-92.46
20444000,-91.61
20453000,-92.63
20462000,-93.05
20471000,-92.22
20480000,-93.22
20489000,-92.54
20498000,-93.49
20507000,-91.61
20516000,-93.96
20525000,-93.58
20534000,-92.71
20543000,-93.13
20552000,-92.38
20561000,-92.22
20570000,-92.54
20579000,-93.4
20588000,-93.13
20597000,-91.76
20606000,-93.76
20615000,-93.22
20624000,-92.46
20633000,-93.58
20642000,-93.3
20651000,-92.96
20660000,-94.05
20669000,-93.05
20678000,-92.96
20687000,-92.78
20696000,-91.6
20705000,-91.97
20714000,-93.12
20723000,-92.53
20732000,-93.86
20741000,-94.06
20750000,-91.9
20759000,-92.05
20768000,-93.58
20777000,-92.96
20786000,-93.67
20795000,-93.77
20804000,-92.36
20813000,-93.96
20822000,-92.44
20831000,-92.78
20840000,-91.09
20849000,-92.96
20858000,-94.06
20867000,-91.82
20876000,-93.4
20885000,-93.21
20894000,-92.05
20903000,-92.44
20912000,-92.95
20921000,-92.2
20930000,-91.67
20939000,-93.86
20948000,-92.78
20957000,-94.36
20966000,-93.86
20975000,-93.12
20984000,-92.78
20993000,-92.53
21002000,-92.12
21011000,-93.48
21020000,-91.52
21029000,-93.03
21038000,-93.03
21047000,-92.36
21056000,-93.67
21065000,-92.78
21074000,-92.04
21083000,-92.04
21092000,-93.31
21101000,-92.78
21110000,-94.15
21119000,-93.31
21128000,-91.97
21137000,-93.76
21146000,-93.12
21155000,-93.39
21164000,-92.95
21173000,-94.25
21182000,-92.28
21191000,-92.61
21200000,-92.95
21209000,-91.3
21218000,-92.95
21227000,-92.78
21236000,-92.2
21245000,-92.61
21254000,-92.53
21263000,-94.05
21272000,-92.28
21281000,-94.34
21290000,-93.48
21299000,-93.57
21308000,-94.15
21317000,-92.21
21326000,-92.53
21335000,-93.12
21344000,-93.57
21353000,-92.96
21362000,-93.85
21371000,-93.04
21380000,-92.29
21389000,-92.87
21398000,-94.05
21407000,-93.04
21416000,-93.57
21425000,-91.61
21434000,-93.95
21443000,-92.7
21452000,-93.4
21461000,-93.3
21470000,-93.76
21479000,-93.21
21488000,-93.85
21497000,-92.29
21506000,-93.21
21515000,-93.67
21524000,-92.53
21533000,-93.85
21542000,-92.13
21551000,-92.87
21560000,-92.95
21569000,-92.95
21578000,-93.21
21587000,-92.13
21596000,-93.39
21605000,-93.21
21614000,-93.39
21623000,-93.48
21632000,-92.86
21641000,-93.3
21650000,-92.79
21659000,-94.05
21668000,-93.48
21677000,-94.14
21686000,-93.39
21695000,-92.95
21704000,-92.53
21713000,-93.3
21722000,-93.39
21731000,-93.67
21740000,-92.53
21749000,-94.14
21758000,-92.7
21767000,-90.6
21776000,-92.13
21785000,-93.04
21794000,-92.21
21803000,-93.21
21812000,-93.12
21821000,-93.67
21830000,-92.21
21839000,-92.53
21848000,-91.75
21857000,-93.39
21866000,-91.62
21875000,-93.15
21884000,-94.18
21893000,-92.63
21902000,-93.89
21911000,-91.99
21920000,-93.51
21929000,-94.69
21938000,-93.89
21947000,-92.98
21956000,-93.14
21965000,-92.55
21974000,-93.14
21983000,-92.63
21992000,-94.08
22001000,-92.63
22010000,-92.07
22019000,-93.79
22028000,-93.88
22037000,-90.67
22046000,-93.33
22055000,-93.14
22064000,-93.23
22073000,-91.92
22082000,-92.15
22091000,-91.26
22100000,-93.6
22109000,-92.98
22118000,-93.23
22127000,-94.27
22136000,-93.33
22145000,-93.33
22154000,-94.47
22163000,-92.55
22172000,-94.27
22181000,-94.08
22190000,-93.5
22199000,-92.55
22208000,-93.79
22217000,-94.69
22226000,-92.8
22235000,-92.97
22244000,-93.42
22253000,-91.4
22262000,-93.6
22271000,-92.89
22280000,-93.14
22289000,-91.69
22298000,-92.55
22307000,-93.33
22316000,-94.27
22325000,-93.98
22334000,-91.99
22343000,-93.5
22352000,-92.8
22361000,-93.69
22370000,-94.08
22379000,-93.05
22388000,-94.17
22397000,-92.8
22406000,-91.69
22415000,-94.38
22424000,-93.69
22433000,-94.38
22442000,-93.5
22451000,-93.33
22460000,-92.3
22469000,-92.49
22478000,-93
22487000,-91.57
22496000,-94.3
22505000,-93.53
22514000,-92.17
22523000,-93.36
22532000,-93.17
22541000,-93.36
22550000,-93.81
22559000,-93.91
22568000,-94.71
22577000,-93.72
22586000,-92.83
22595000,-92.33
22604000,-92.58
22613000,-93.91
22622000,-91.94
22631000,-94.5
22640000,-93.91
22649000,-94.1
22658000,-95.48
22667000,-93.91
22676000,-93.72
22685000,-93.81
22694000,-93.63
22703000,-94.1
22712000,-93.08
22721000,-93
22730000,-94.71
22739000,-93.81
22748000,-92.58
22757000,-94.92
22766000,-93.72
22775000,-93.72
22784000,-93.91
22793000,-92.49
22802000,-94.3
22811000,-93.91
22820000,-93.35
22829000,-93.26
22838000,-94.3
22847000,-93.81
22856000,-93.53
22865000,-93
22874000,-93.91
22883000,-94.92
22892000,-92.33
22901000,-93
22910000,-93
22919000,-93.35
22928000,-93.71
22937000,-93.53
22946000,-93.53
22955000,-93.53
22964000,-93.71
22973000,-92.66
22982000,-93.71
22991000,-93.17
23000000,-94.3
23009000,-93.35
23018000,-93.71
23027000,-92.49
23036000,-93.71
23045000,-91.71
23054000,-94.71
23063000,-93
23072000,-93.17
23081000,-93.53
23090000,-95.36
23099000,-94.2
23108000,-93.53
23117000,-94.1
23126000,-93
23135000,-94.1
23144000,-93.53
23153000,-93.62
23162000,-92.33
23171000,-93.91
23180000,-93.81
23189000,-92.82
23198000,-93.53
23207000,-92.82
23216000,-94.1
23225000,-92.41
23234000,-93.17
23243000,-93.35
23252000,-91.35
23261000,-94.1
23270000,-92.65
23279000,-93.08
23288000,-94.1
23297000,-94.92
23306000,-92.33
23315000,-93.71
23324000,-94.1
23333000,-93
23342000,-92.25
23351000,-93.16
23360000,-93
23369000,-92.25
23378000,-92.41
23387000,-93.62
23396000,-92.65
23405000,-91.14
23414000,-92.01
23423000,-94.2
23432000,-93.71
23441000,-92.33
23450000,-92.25
23459000,-93.9
23468000,-93
23477000,-92.74
23486000,-93.25
23495000,-93.81
23504000,-93.71
23513000,-93.16
23522000,-94.49
23531000,-93.52
23540000,-92.17
23549000,-93.16
23558000,-93.62
23567000,-94.29
23576000,-91.2
23585000,-93.9
23594000,-93.35
23603000,-92.91
23612000,-93.71
23621000,-92.32
23630000,-92.65
23639000,-92.48
23648000,-94.49
23657000,-93.9
23666000,-93.49
23675000,-92.37
23684000,-92.71
23693000,-92.37
23702000,-93.49
23711000,-93.32
23720000,-92.45
23729000,-92.05
23738000,-93.13
23747000,-91.97
23756000,-92.79
23765000,-91.38
23774000,-92.29
23783000,-92.54
23792000,-93.49
23801000,-93.68
23810000,-93.13
23819000,-93.31
23828000,-92.45
23837000,-93.22
23846000,-91.52
23855000,-93.49
23864000,-92.45
23873000,-92.79
23882000,-92.45
23891000,-92.62
23900000,-94.46
23909000,-91.75
23918000,-93.87
23927000,-91.67
23936000,-93.22
23945000,-92.78
23954000,-91.38
23963000,-91.97
23972000,-92.45
23981000,-92.05
23990000,-93.04
23999000,-92.54
24008000,-91.6
24017000,-91.45
24026000,-92.78
24035000,-92.45
24044000,-92.96
24053000,-93.13
24062000,-94.06
24071000,-91.24
24080000,-92.45
24089000,-93.13
24098000,-94.06
24107000,-94.06
24116000,-93.87
24125000,-92.87
24134000,-92.29
24143000,-91.6
24152000,-92.78
24161000,-92.7
24170000,-93.31
24179000,-93.04
24188000,-93.49
24197000,-94.06
24206000,-93.87
24215000,-90.96
24224000,-93.67
24233000,-94.06
24242000,-92.78
24251000,-93.77
24260000,-92.45
24269000,-92.65
24278000,-93.62
24287000,-91.41
24296000,-91.55
24305000,-93.52
24314000,-93.9
24323000,-92.99
24332000,-92.48
24341000,-92.9
24350000,-92.73
24359000,-93.34
24368000,-91.93
24377000,-92.9
24386000,-93.34
24395000,-93.16
24404000,-93.43
24413000,-93.34
24422000,-93.9
24431000,-94.09
24440000,-92.99
24449000,-93.34
24458000,-92.48
24467000,-91.34
24476000,-94.19
24485000,-90.68
24494000,-92.4
24503000,-92.08
24512000,-92
24521000,-91.85
24530000,-92.32
24539000,-92.9
24548000,-93.9
24557000,-93.15
24566000,-93.34
24575000,-92.64
24584000,-91.7
24593000,-92.9
24602000,-92.64
24611000,-92.32
24620000,-91.78
24629000,-90.98
24638000,-93.89
24647000,-93.15
24656000,-93.52
24665000,-92.9
24674000,-92
24683000,-91.85
24692000,-91.93
24701000,-93.15
24710000,-92.99
24719000,-93.7
24728000,-92.24
24737000,-93.89
24746000,-92.9
24755000,-92.08
24764000,-92.99
24773000,-93.34
24782000,-92.64
24791000,-92.73
24800000,-93.34
24809000,-92.24
24818000,-92.56
24827000,-92.81
24836000,-93.34
24845000,-93.7
24854000,-93.28
24863000,-92.5
24872000,-92.25
24881000,-92.5
24890000,-92.09
24899000,-92.75
24908000,-92.25
24917000,-92.5
24926000,-92.33
24935000,-92.92
24944000,-93.45
24953000,-90.74
24962000,-91.93
24971000,-89.85
24980000,-86.72
24989000,-75.48
24998000,-52.79
25007000,-66.01
25016000,-84.2
25025000,-89.15
25034000,-92.58
25043000,-91.93
25052000,-91.78
25061000,-93.27
25070000,-93.18
25079000,-93.27
25088000,-92.83
25097000,-92.74
25106000,-92.92
25115000,-90.61
25124000,-91.93
25133000,-92.58
25142000,-92.74
25151000,-92.25
25160000,-92.41
25169000,-93.27
25178000,-93.09
25187000,-91.93
25196000,-93.09
25205000,-92.58
25214000,-92.41
25223000,-92.92
25232000,-93.63
25241000,-93.45
25250000,-93.73
25259000,-93.18
25268000,-92.92
25277000,-92.5
25286000,-92.25
25295000,-92.92
25304000,-91.93
25313000,-94.22
25322000,-93.45
25331000,-91.86
25340000,-92.41
25349000,-93.09
25358000,-93.09
25367000,-92.92
25376000,-92.92
25385000,-92.92
25394000,-93.09
25403000,-92.74
25412000,-91.48
25421000,-92.83
25430000,-92.09
25439000,-93.2
25448000,-93.3
25457000,-91.96
25466000,-92.95
25475000,-92.77
25484000,-92.53
25493000,-93.2
25502000,-91.96
25511000,-92.12
25520000,-93.39
25529000,-93.48
25538000,-92.12
25547000,-93.3
25556000,-93.39
25565000,-91.51
25574000,-93.48
25583000,-94.15
25592000,-92.86
25601000,-93.12
25610000,-92.86
25619000,-93.2
25628000,-93.86
25637000,-93.48
25646000,-93.2
25655000,-91.81
25664000,-92.2
25673000,-92.69
25682000,-93.03
25691000,-92.36
25700000,-93.03
25709000,-93.39
25718000,-93.3
25727000,-91.51
25736000,-92.6
25745000,-92.77
25754000,-92.6
25763000,-92.28
25772000,-92.28
25781000,-92.86
25790000,-92.43
25799000,-91.01
25808000,-92.6
25817000,-92.2
25826000,-93.85
25835000,-91.81
25844000,-92.77
25853000,-93.48
25862000,-91.66
25871000,-92.77
25880000,-91.08
25889000,-92.43
25898000,-91.89
25907000,-92.43
25916000,-92.04
25925000,-92.95
25934000,-92.43
25943000,-92.43
25952000,-92.43
25961000,-92.12
25970000,-93.11
25979000,-92.43
25988000,-93.47
25997000,-91.66
26006000,-91.81
26015000,-92.6
26024000,-92.19
26033000,-92.94
26042000,-92.43
26051000,-93.66
26060000,-93.11
26069000,-91.08
26078000,-93.3
26087000,-92.12
26096000,-92.77
26105000,-92.19
26114000,-92.43
26123000,-91.59
26132000,-91.22
26141000,-92.86
26150000,-92.69
26159000,-92.77
26168000,-92.94
26177000,-93.2
26186000,-93.11
26195000,-92.52
26204000,-93.3
26213000,-93.3
26222000,-92.43
26231000,-92.27
26240000,-91.58
26249000,-92.69
26258000,-93.85
26267000,-93.3
26276000,-93.11
26285000,-91.95
26294000,-93.85
26303000,-92.27
26312000,-93.85
26321000,-92.6
26330000,-92.27
26339000,-93.02
26348000,-93.66
26357000,-92.6
26366000,-91.15
26375000,-92.94
26384000,-93.66
26393000,-93.85
26402000,-91.73
26411000,-92.35
26420000,-93.11
26429000,-92.11
26438000,-92.6
26447000,-92.76
26456000,-92.43
26465000,-92.35
26474000,-92.19
26483000,-91.8
26492000,-91.88
26501000,-92.27
26510000,-92.27
26519000,-93.95
26528000,-91.8
26537000,-92.27
26546000,-91.8
26555000,-93.47
26564000,-93.11
26573000,-91.15
26582000,-92.6
26591000,-92.76
26600000,-90.37
26609000,-93.11
26618000,-92.6
26627000,-92.68
26636000,-92.85
26645000,-93.2
26654000,-92.19
26663000,-93.65
26672000,-92.52
26681000,-93.29
26690000,-94.34
26699000,-91.36
26708000,-93.11
26717000,-93.38
26726000,-91.8
26735000,-92.59
26744000,-92.43
26753000,-92.94
26762000,-92.85
26771000,-92.43
26780000,-92.52
26789000,-92.94
26798000,-93.56
26807000,-92.19
26816000,-92.51
26825000,-93.11
26834000,-93.29
26843000,-93.47
26852000,-92.03
26861000,-93.02
26870000,-92.59
26879000,-94.04
26888000,-93.02
26897000,-92.94
26906000,-94.14
26915000,-92.43
26924000,-92.94
26933000,-92.51
26942000,-92.35
26951000,-91.36
26960000,-93.38
26969000,-91.43
26978000,-93.56
26987000,-93.65
26996000,-91.95
27005000,-93.38
27014000,-92.94
27023000,-93.56
27032000,-93.02
27041000,-92.27
27050000,-93.1
27059000,-92.51
27068000,-93.1
27077000,-93.94
27086000,-93.1
27095000,-93.56
27104000,-93.19
27113000,-93.29
27122000,-92.27
27131000,-92.42
27140000,-93.01
27149000,-93.1
27158000,-92.76
27167000,-92.76
27176000,-91.22
27185000,-93.19
27194000,-91.95
27203000,-92.26
27212000,-92.76
27221000,-94.96
27230000,-91.88
27239000,-93.1
27248000,-92.03
27257000,-93.1
27266000,-93.01
27275000,-93.84
27284000,-93.29
27293000,-92.76
27302000,-92.85
27311000,-93.84
27320000,-93.94
27329000,-93.75
27338000,-92.34
27347000,-93.29
27356000,-92.93
27365000,-93.84
27374000,-92.51
27383000,-92.18
27392000,-92.76
27401000,-92.03
27410000,-93.37
27419000,-93.29
27428000,-93.56
27437000,-93.37
27446000,-93.29
27455000,-93.19
27464000,-94.43
27473000,-92.93
27482000,-92.42
27491000,-91.8
27500000,-93.01
27509000,-93.1
27518000,-92.93
27527000,-92.93
27536000,-91.87
27545000,-93.84
27554000,-91.07
27563000,-91.72
27572000,-92.42
27581000,-92.93
27590000,-93.28
27599000,-92.26
27608000,-93.56
27617000,-92.93
27626000,-92.93
27635000,-93.19
27644000,-92.18
27653000,-92.76
27662000,-92.76
27671000,-93.28
27680000,-92.75
27689000,-93.28
27698000,-91.42
27707000,-92.84
27716000,-91.64
27725000,-93.46
27734000,-93.46
27743000,-91.94
27752000,-93.01
27761000,-92.59
27770000,-91.94
27779000,-91.42
27788000,-93.84
27797000,-93.46
27806000,-91.94
27815000,-92.62
27824000,-91.97
27833000,-92.71
27842000,-93.22
27851000,-93.49
27860000,-93.49
27869000,-91.67
27878000,-93.87
27887000,-92.29
27896000,-94.78
27905000,-93.22
27914000,-93.77
27923000,-93.22
27932000,-92.78
27941000,-93.4
27950000,-93.31
27959000,-93.31
27968000,-93.59
27977000,-92.45
27986000,-92.05
27995000,-92.78
28004000,-91.38
28013000,-92.62
28022000,-92.96
28031000,-90.89
28040000,-93.67
28049000,-93.31
28058000,-92.54
28067000,-93.49
28076000,-93.67
28085000,-92.96
28094000,-90.89
28103000,-93.49
28112000,-92.05
28121000,-93.49
28130000,-94.06
28139000,-92.78
28148000,-91.52
28157000,-92.61
28166000,-91.9
28175000,-93.67
28184000,-93.31
28193000,-93.31
28202000,-93.13
28211000,-92.45
28220000,-91.97
28229000,-94.46
28238000,-93.87
28247000,-94.46
28256000,-93.21
28265000,-92.45
28274000,-91.75
28283000,-92.61
28292000,-94.46
28301000,-92.53
28310000,-93.67
28319000,-92.96
28328000,-93.12
28337000,-93.67
28346000,-92.45
28355000,-92.78
28364000,-92.96
28373000,-93.31
28382000,-92.13
28391000,-93.12
28400000,-92.75
28409000,-90.92
28418000,-91.79
28427000,-92.1
28436000,-93.28
28445000,-92.58
28454000,-92.25
28463000,-93.37
28472000,-92.33
28481000,-93.37
28490000,-91.87
28499000,-92.84
28508000,-94.03
28517000,-92.41
28526000,-92.41
28535000,-93.09
28544000,-91.94
28553000,-93.45
28562000,-93.18
28571000,-91.64
28580000,-92.92
28589000,-92.92
28598000,-92.75
28607000,-92.41
28616000,-92.17
28625000,-91.49
28634000,-92.92
28643000,-91.72
28652000,-94.22
28661000,-92.92
28670000,-93.93
28679000,-94.03
28688000,-92.92
28697000,-93.64
28706000,-93.09
28715000,-93.55
28724000,-91.86
28733000,-91.49
28742000,-90.22
28751000,-91.93
28760000,-91.34
28769000,-90.48
28778000,-92.83
28787000,-92.41
28796000,-92.75
28805000,-94.42
28814000,-91.2
28823000,-92.58
28832000,-92.67
28841000,-91.93
28850000,-91.86
28859000,-93.09
28868000,-93.27
28877000,-93.73
28886000,-94.32
28895000,-91.78
28904000,-92.41
28913000,-93.64
28922000,-92.33
28931000,-92.74
28940000,-91.56
28949000,-93.45
28958000,-92.41
28967000,-92.58
28976000,-89.49
28985000,-93.64
28994000,-92.77
29003000,-92.68
29012000,-92.77
29021000,-93.39
29030000,-92.35
29039000,-93.3
29048000,-93.03
29057000,-91.57
29066000,-92.19
29075000,-92.03
29084000,-92.68
29093000,-92.68
29102000,-92.86
29111000,-91.57
29120000,-92.19
29129000,-92.86
29138000,-92.86
29147000,-92.51
29156000,-93.03
29165000,-92.68
29174000,-93.57
29183000,-93.77
29192000,-92.6
29201000,-92.51
29210000,-93.03
29219000,-94.57
29228000,-93.11
29237000,-93.02
29246000,-92.51
29255000,-93.77
29264000,-91.57
29273000,-92.51
29282000,-92.43
29291000,-93.3
29300000,-92.43
29309000,-91.57
29318000,-92.6
29327000,-92.6
29336000,-92.68
29345000,-93.57
29354000,-91.72
29363000,-93.21
29372000,-91.21
29381000,-92.77
29390000,-92.51
29399000,-92.43
29408000,-93.02
29417000,-93.76
29426000,-94.06
29435000,-94.57
29444000,-93.57
29453000,-92.51
29462000,-93.76
29471000,-92.11
29480000,-91.95
29489000,-93.96
29498000,-92.03
29507000,-93.38
29516000,-92.18
29525000,-92.11
29534000,-93.02
29543000,-93.38
29552000,-91.13
29561000,-93.67
29570000,-92.34
29579000,-94.35
29588000,-93.27
29597000,-92.92
29606000,-94.63
29615000,-91.78
29624000,-93.36
29633000,-92.4
29642000,-91.71
29651000,-92.74
29660000,-92.4
29669000,-92.66
29678000,-93.36
29687000,-92.09
29696000,-94.11
29705000,-93.82
29714000,-92.66
29723000,-94.02
29732000,-93.08
29741000,-93.44
29750000,-92.09
29759000,-91.34
29768000,-92.4
29777000,-92.83
29786000,-93.92
29795000,-93.63
29804000,-92.91
29813000,-92.91
29822000,-94.02
29831000,-92.24
29840000,-92.24
29849000,-92.32
29858000,-92.57
29867000,-91.78
29876000,-92.74
29885000,-90.6
29894000,-93.35
29903000,-92.49
29912000,-93.08
29921000,-94.32
29930000,-92.91
29939000,-91.63
29948000,-92.66
29957000,-92.4
29966000,-92.49
29975000,-91.48
29984000,-82.47
29993000,-63.7
30002000,-53.7
30011000,-77.32
30020000,-87.99
30029000,-91.19
30038000,-91.62
30047000,-93.92
30056000,-91.7
30065000,-93.08
30074000,-93.44
30083000,-93.08
30092000,-93.35
30101000,-94.21
30110000,-94.21
30119000,-91.62
30128000,-93.17
30137000,-93.54
30146000,-92.24
30155000,-92.82
30164000,-94.62
30173000,-92.82
30182000,-90.34
30191000,-93.08
30200000,-93.82
30209000,-93.35
30218000,-92.99
30227000,-94.01
30236000,-92.24
30245000,-93.08
30254000,-92.82
30263000,-91.19
30272000,-93.72
30281000,-92.4
30290000,-93.44
30299000,-94.01
30308000,-93.08
30317000,-91.47
30326000,-93.35
30335000,-93.26
30344000,-91.85
30353000,-92.24
30362000,-94.83
30371000,-92.4
30380000,-94.01
30389000,-92.73
30398000,-92.65
30407000,-91.19
30416000,-91.85
30425000,-93.08
30434000,-94.21
30443000,-92.49
30452000,-91.55
30461000,-90.34
30470000,-92.73
30479000,-92.73
30488000,-91.77
30497000,-93.44
30506000,-92.4
30515000,-91.92
30524000,-93.82
30533000,-92.32
30542000,-92.73
30551000,-92.73
30560000,-93.16
30569000,-90.21
30578000,-93.62
30587000,-93.16
30596000,-92.91
30605000,-94.31
30614000,-93.26
30623000,-92.91
30632000,-93.53
30641000,-93.82
30650000,-92.91
30659000,-92
30668000,-93.07
30677000,-94.2
30686000,-92.99
30695000,-90.46
30704000,-92.65
30713000,-93.62
30722000,-93.82
30731000,-91.92
30740000,-93.72
30749000,-93.26
30758000,-92.48
30767000,-94.38
30776000,-92.7
30785000,-91.67
30794000,-93.04
30803000,-92.28
30812000,-92.7
30821000,-93.88
30830000,-92.79
30839000,-91.52
30848000,-94.07
30857000,-91.23
30866000,-92.05
30875000,-93.32
30884000,-93.4
30893000,-93.59
30902000,-94.48
30911000,-93.23
30920000,-90.7
30929000,-92.7
30938000,-92.87
30947000,-94.69
30956000,-91.59
30965000,-93.78
30974000,-91.3
30983000,-93.69
30992000,-92.36
31001000,-93.4
31010000,-90.31
31019000,-92.04
31028000,-94.17
31037000,-92.36
31046000,-92.53
31055000,-93.68
31064000,-91.67
31073000,-92.28
31082000,-93.59
31091000,-92.79
31100000,-90.87
31109000,-92.36
31118000,-93.04
31127000,-92.28
31136000,-91.29
31145000,-92.78
31154000,-92.53
31163000,-93.23
31172000,-93.4
31181000,-94.07
31190000,-92.95
31199000,-93.13
31208000,-92.78
31217000,-92.95
31226000,-91.81
31235000,-94.17
31244000,-93.04
31253000,-93.13
31262000,-93.5
31271000,-93.22
31280000,-92.53
31289000,-92.95
31298000,-93.22
31307000,-93.22
31316000,-92.12
31325000,-91.58
31334000,-92.2
31343000,-93.22
31352000,-92.78
31361000,-93.59
31370000,-92.45
31379000,-93.59
31388000,-94.17
31397000,-94.58
31406000,-94.58
31415000,-93.13
31424000,-93.04
31433000,-92.53
31442000,-93.68
31451000,-93.22
31460000,-92.69
31469000,-93.22
31478000,-93.97
31487000,-92.45
31496000,-93.04
31505000,-91.88
31514000,-93.97
31523000,-93.22
31532000,-93.22
31541000,-90.8
31550000,-91.58
31559000,-92.69
31568000,-93.78
31577000,-93.04
31586000,-92.53
31595000,-92.61
31604000,-92.04
31613000,-93.5
31622000,-92.36
31631000,-91.58
31640000,-92.45
31649000,-91.96
31658000,-92.2
31667000,-91.96
31676000,-92.12
31685000,-92.87
31694000,-93.4
31703000,-93.58
31712000,-92.78
31721000,-91.43
31730000,-93.4
31739000,-93.12
31748000,-93.97
31757000,-93.22
31766000,-93.22
31775000,-93.58
31784000,-90.87
31793000,-90.69
31802000,-92.95
31811000,-92.69
31820000,-93.49
31829000,-92.28
31838000,-92.28
31847000,-93.31
31856000,-92.95
31865000,-93.22
31874000,-93.78
31883000,-91.51
31892000,-93.03
31901000,-93.22
31910000,-93.03
31919000,-93.03
31928000,-92.61
31937000,-92.69
31946000,-93.25
31955000,-91.67
31964000,-92.13
31973000,-93.25
31982000,-90.8
31991000,-92.88
32000000,-93.43
32009000,-92.63
32018000,-92.55
32027000,-93.71
32036000,-93.52
32045000,-91.98
32054000,-91.23
32063000,-92.88
32072000,-93.33
32081000,-94.21
32090000,-94.73
32099000,-90.36
32108000,-91.75
32117000,-91.97
32126000,-93.33
32135000,-91.52
32144000,-94.51
32153000,-93.71
32162000,-93.06
32171000,-91.67
32180000,-93.61
32189000,-91.52
32198000,-92.21
32207000,-93.33
32216000,-92.97
32225000,-92.71
32234000,-93.16
32243000,-92.97
32252000,-92.29
32261000,-92.29
32270000,-93.33
32279000,-93.33
32288000,-91.97
32297000,-93.06
32306000,-93.06
32315000,-92.38
32324000,-93.9
32333000,-92.55
32342000,-93.52
32351000,-93.15
32360000,-93.33
32369000,-92.63
32378000,-91.36
32387000,-92.62
32396000,-93.15
32405000,-93.52
32414000,-91.97
32423000,-93.15
32432000,-91.22
32441000,-93.71
32450000,-92.62
32459000,-92.8
32468000,-93.43
32477000,-91.97
32486000,-92.88
32495000,-92.54
32504000,-94.3
32513000,-94.2
32522000,-92.8
32531000,-93.43
32540000,-93.42
32549000,-91.9
32558000,-92.38
32567000,-92.89
32576000,-92.89
32585000,-93.8
32594000,-92.38
32603000,-92.72
32612000,-93.06
32621000,-92.8
32630000,-94.19
32639000,-94.19
32648000,-93.99
32657000,-91.98
32666000,-91.68
32675000,-94.6
32684000,-93.15
32693000,-93.24
32702000,-93.8
32711000,-95.03
32720000,-92.97
32729000,-92.71
32738000,-92.06
32747000,-94.19
32756000,-94.39
32765000,-92.97
32774000,-92.22
32783000,-94.19
32792000,-92.71
32801000,-91.75
32810000,-92.14
32819000,-92.97
32828000,-92.38
32837000,-93.6
32846000,-92.97
32855000,-91.83
32864000,-92.71
32873000,-92.89
32882000,-93.33
32891000,-91.9
32900000,-92.71
32909000,-92.89
32918000,-93.42
32927000,-92.06
32936000,-93.24
32945000,-91.83
32954000,-94.29
32963000,-94.49
32972000,-93.06
32981000,-93.42
32990000,-93.6
32999000,-92.89
33008000,-93.06
33017000,-91.75
33026000,-93.33
33035000,-93.89
33044000,-92.97
33053000,-93.42
33062000,-92.71
33071000,-93.99
33080000,-93.8
33089000,-92.63
33098000,-93.89
33107000,-94.09
33116000,-92.3
33125000,-92.97
33134000,-93.27
33143000,-93.83
33152000,-92.31
33161000,-93.73
33170000,-94.43
33179000,-93.54
33188000,-93.08
33197000,-93.83
33206000,-92.65
33215000,-92.65
33224000,-92.99
33233000,-92.99
33242000,-92.83
33251000,-94.43
33260000,-92.74
33269000,-92.99
33278000,-93.54
33287000,-93.27
33296000,-93.73
33305000,-92.65
33314000,-92.23
33323000,-94.02
33332000,-92.82
33341000,-92.82
33350000,-90.75
33359000,-92.65
33368000,-92.99
33377000,-92
33386000,-93.54
33395000,-92.48
33404000,-95.19
33413000,-90.82
33422000,-93.73
33431000,-93.35
33440000,-93.45
33449000,-90.96
33458000,-93.18
33467000,-92.31
33476000,-91.91
33485000,-92.15
33494000,-92.82
33503000,-94.12
33512000,-92.82
33521000,-92.31
33530000,-91.84
33539000,-93.18
33548000,-91.24
33557000,-93.93
33566000,-92.23
33575000,-91.99
33584000,-93.45
33593000,-91.83
33602000,-93.18
33611000,-92.65
33620000,-92.82
33629000,-92.99
33638000,-91.99
33647000,-92.82
33656000,-91.24
33665000,-92.65
33674000,-93.35
33683000,-93.54
33692000,-92.07
33701000,-93.63
33710000,-91.83
33719000,-92.31
33728000,-92.61
33737000,-92.79
33746000,-93.32
33755000,-91.43
33764000,-93.32
33773000,-93.05
33782000,-93.32
33791000,-94.09
33800000,-93.7
33809000,-93.8
33818000,-93.7
33827000,-94.19
33836000,-93.14
33845000,-92.53
33854000,-93.14
33863000,-92.12
33872000,-93.7
33881000,-93.5
33890000,-92.28
33899000,-92.2
33908000,-91.96
33917000,-92.87
33926000,-91.8
33935000,-92.87
33944000,-92.79
33953000,-93.99
33962000,-93.6
33971000,-93.04
33980000,-94.19
33989000,-93.32
33998000,-92.53
34007000,-94.19
34016000,-93.79
34025000,-93.89
34034000,-92.7
34043000,-91.21
34052000,-92.61
34061000,-93.79
34070000,-93.89
34079000,-93.89
34088000,-92.61
34097000,-93.7
34106000,-91.96
34115000,-92.12
34124000,-93.89
34133000,-93.14
34142000,-92.2
34151000,-94.08
34160000,-91.88
34169000,-92.28
34178000,-92.87
34187000,-93.7
34196000,-93.7
34205000,-93.14
34214000,-93.14
34223000,-94.08
34232000,-92.87
34241000,-93.41
34250000,-93.04
34259000,-94.29
34268000,-92.79
34277000,-92.79
34286000,-92.44
34295000,-93.6
34304000,-92.61
34313000,-92.12
34322000,-93.76
34331000,-93.2
34340000,-93.56
34349000,-93.2
34358000,-93.01
34367000,-93.2
34376000,-92.67
34385000,-93.56
34394000,-94.35
34403000,-92.67
34412000,-92.67
34421000,-92.5
34430000,-92.5
34439000,-92.33
34448000,-92.5
34457000,-92.85
34466000,-94.05
34475000,-92.67
34484000,-93.47
34493000,-92.93
34502000,-92.59
34511000,-92.33
34520000,-93.56
34529000,-93.56
34538000,-92.33
34547000,-93.85
34556000,-93.37
34565000,-93.47
34574000,-94.77
34583000,-92.5
34592000,-92.67
34601000,-92.25
34610000,-92.17
34619000,-93.37
34628000,-92.33
34637000,-92.33
34646000,-91.86
34655000,-92.59
34664000,-92.33
34673000,-93.66
34682000,-92.25
34691000,-94.56
34700000,-93.2
34709000,-92.84
34718000,-92.09
34727000,-91.79
34736000,-92.92
34745000,-92.84
34754000,-93.37
34763000,-93.01
34772000,-93.75
34781000,-93.2
34790000,-93.47
34799000,-92.67
34808000,-93.2
34817000,-92.42
34826000,-93.28
34835000,-93.95
34844000,-93.95
34853000,-92.17
34862000,-94.14
34871000,-92.67
34880000,-93.75
34889000,-93.01
34898000,-93.01
34907000,-93.1
34916000,-92.59
34925000,-93.56
34934000,-92.92
34943000,-92.01
34952000,-93.28
34961000,-91.85
34970000,-91.93
34979000,-88.02
34988000,-77.97
34997000,-54.26
35006000,-63.73
35015000,-83.75
35024000,-90.53
35033000,-91.7
35042000,-92.33
35051000,-93.56
35060000,-91.7
35069000,-94.34
35078000,-91.4
35087000,-93.19
35096000,-93.94
35105000,-93.56
35114000,-92.75
35123000,-93.01
35132000,-93.75
35141000,-94.14
35150000,-93.1
35159000,-93.65
35168000,-94.76
35177000,-93.94
35186000,-91.4
35195000,-91.85
35204000,-93.1
35213000,-92.42
35222000,-93.55
35231000,-93.01
35240000,-90.84
35249000,-92.25
35258000,-93.01
35267000,-92.25
35276000,-92.01
35285000,-93.94
35294000,-91.12
35303000,-92.17
35312000,-93.01
35321000,-93.01
35330000,-92.66
35339000,-93.1
35348000,-93.75
35357000,-92.33
35366000,-92.66
35375000,-93.47
35384000,-93.75
35393000,-93.37
35402000,-93.09
35411000,-94.14
35420000,-92.01
35429000,-93.46
35438000,-93.55
35447000,-92.49
35456000,-93.37
35465000,-92.49
35474000,-93.37
35483000,-93.65
35492000,-93.01
35501000,-93.37
35510000,-92.01
35519000,-93.75
35528000,-94.55
35537000,-93.75
35546000,-93.55
35555000,-93.84
35564000,-93.75
35573000,-92.49
35582000,-94.55
35591000,-92.01
35600000,-92.66
35609000,-92.49
35618000,-92.66
35627000,-93.37
35636000,-91.78
35645000,-93.09
35654000,-93.94
35663000,-93.37
35672000,-94.24
35681000,-93.19
35690000,-93.55
35699000,-92.49
35708000,-94.04
35717000,-93.37
35726000,-93.74
35735000,-93.55
35744000,-93.55
35753000,-93.55
35762000,-93.55
35771000,-93.36
35780000,-93.19
35789000,-92.17
35798000,-92.84
35807000,-91.55
35816000,-92.84
35825000,-92.84
35834000,-93
35843000,-94.03
35852000,-93
35861000,-91.93
35870000,-93
35879000,-92.66
35888000,-91.55
35897000,-93
35906000,-93.55
35915000,-93.55
35924000,-92.75
35933000,-93.65
35942000,-91.78
35951000,-94.24
35960000,-94.24
35969000,-91.85
35978000,-92.66
35987000,-93.46
35996000,-94.13
36005000,-92.49
36014000,-92.58
36023000,-92.16
36032000,-89.89
36041000,-92.66
36050000,-93.64
36059000,-92.75
36068000,-93.74
36077000,-93.55
36086000,-92.66
36095000,-93.64
36104000,-93.64
36113000,-93.84
36122000,-93.46
36131000,-92.16
36140000,-94.44
36149000,-93.36
36158000,-94.86
36167000,-90.97
36176000,-92.66
36185000,-93.74
36194000,-91.92
36203000,-92.66
36212000,-93.09
36221000,-93.27
36230000,-93.18
36239000,-93
36248000,-92.49
36257000,-92
36266000,-92.16
36275000,-92.83
36284000,-92.16
36293000,-93.93
36302000,-94.13
36311000,-94.03
36320000,-92.74
36329000,-94.03
36338000,-92.32
36347000,-93.36
36356000,-93.27
36365000,-94.33
36374000,-90.83
36383000,-92.74
36392000,-92.58
36401000,-91.84
36410000,-93.74
36419000,-92.49
36428000,-94.33
36437000,-94.03
36446000,-91.69
36455000,-93.74
36464000,-93.36
36473000,-92.65
36482000,-93.84
36491000,-93
36500000,-93.18
36509000,-93.27
36518000,-94.97
36527000,-93.46
36536000,-92.32
36545000,-91.54
36554000,-93.74
36563000,-93.36
36572000,-92.74
36581000,-93.09
36590000,-93.74
36599000,-93.36
36608000,-93.08
36617000,-94.65
36626000,-94.54
36635000,-92.24
36644000,-93.18
36653000,-92.48
36662000,-91.69
36671000,-91.69
36680000,-93.64
36689000,-93.36
36698000,-93.18
36707000,-93.54
36716000,-90.65
36725000,-91.69
36734000,-92.74
36743000,-93.45
36752000,-93.36
36761000,-92.57
36770000,-92.48
36779000,-94.64
36788000,-93.93
36797000,-94.12
36806000,-93
36815000,-92.48
36824000,-92.83
36833000,-92.48
36842000,-93.36
36851000,-93.93
36860000,-93.54
36869000,-91.47
36878000,-91.39
36887000,-93.36
36896000,-93.36
36905000,-92.32
36914000,-93.83
36923000,-93.27
36932000,-93.18
36941000,-92.4
36950000,-93.36
36959000,-93.83
36968000,-93.27
36977000,-92.65
36986000,-93.73
36995000,-93.08
37004000,-93.93
37013000,-93.08
37022000,-92.57
37031000,-92.91
37040000,-92.99
37049000,-93.18
37058000,-93.54
37067000,-94.54
37076000,-93.64
37085000,-92.31
37094000,-93.54
37103000,-93.35
37112000,-91.69
37121000,-93.18
37130000,-92
37139000,-94.12
37148000,-93.35
37157000,-93.45
37166000,-93.54
37175000,-92.57
37184000,-94.12
37193000,-93.35
37202000,-91.62
37211000,-93.73
37220000,-92.65
37229000,-94.75
37238000,-93.18
37247000,-91.54
37256000,-92.99
37265000,-92.07
37274000,-92.4
37283000,-93.05
37292000,-92.45
37301000,-93.8
37310000,-93.32
37319000,-93.42
37328000,-94.19
37337000,-92.87
37346000,-90.72
37355000,-93.7
37364000,-94.29
37373000,-91.96
37382000,-92.79
37391000,-93.6
37400000,-92.79
37409000,-93.05
37418000,-92.96
37427000,-93.14
37436000,-94.5
37445000,-92.28
37454000,-93.32
37463000,-92.37
37472000,-93.51
37481000,-92.7
37490000,-94.09
37499000,-93.51
37508000,-93.89
37517000,-94.5
37526000,-93.14
37535000,-93.8
37544000,-93.89
37553000,-92.7
37562000,-94.93
37571000,-91.73
37580000,-92.61
37589000,-93.23
37598000,-92.12
37607000,-93.7
37616000,-95.38
37625000,-92.79
37634000,-92.45
37643000,-94.19
37652000,-93.5
37661000,-93.42
37670000,-91.96
37679000,-91.8
37688000,-92.12
37697000,-93.5
37706000,-93.89
37715000,-92.87
37724000,-92.12
37733000,-92.96
37742000,-93.32
37751000,-91.65
37760000,-93.14
37769000,-93.14
37778000,-93.89
37787000,-93.14
37796000,-93.7
37805000,-94.5
37814000,-93.79
37823000,-92.28
37832000,-93.6
37841000,-93.89
37850000,-93.32
37859000,-94.39
37868000,-92.87
37877000,-92.87
37886000,-92.06
37895000,-94.02
37904000,-94.02
37913000,-91.01
37922000,-92.73
37931000,-95.09
37940000,-92.98
37949000,-93.64
37958000,-93.26
37967000,-93.26
37976000,-91.9
37985000,-92.06
37994000,-93.08
38003000,-93.26
38012000,-93.64
38021000,-93.54
38030000,-93.26
38039000,-93.26
38048000,-92.3
38057000,-94.76
38066000,-93.08
38075000,-93.44
38084000,-94.23
38093000,-94.44
38102000,-92.89
38111000,-93.26
38120000,-93.63
38129000,-91.98
38138000,-93.44
38147000,-93.73
38156000,-93.08
38165000,-92.89
38174000,-93.93
38183000,-93.35
38192000,-93.54
38201000,-93.83
38210000,-92.55
38219000,-93.08
38228000,-94.13
38237000,-91.37
38246000,-92.89
38255000,-91.44
38264000,-92.64
38273000,-93.63
38282000,-93.35
38291000,-93.83
38300000,-93.08
38309000,-93.63
38318000,-93.83
38327000,-92.05
38336000,-91.44
38345000,-92.64
38354000,-94.02
38363000,-93.63
38372000,-93.35
38381000,-93.08
38390000,-92.55
38399000,-93.44
38408000,-92.55
38417000,-93.92
38426000,-94.43
38435000,-93.16
38444000,-93.53
38453000,-93.25
38462000,-92.98
38471000,-93.44
38480000,-92.61
38489000,-92.61
38498000,-94.71
38507000,-93.5
38516000,-92.95
38525000,-91.72
38534000,-92.86
38543000,-93.98
38552000,-93.98
38561000,-93.04
38570000,-93.69
38579000,-93.5
38588000,-91.34
38597000,-92.53
38606000,-93.69
38615000,-93.14
38624000,-94.08
38633000,-94.49
38642000,-92.95
38651000,-92.19
38660000,-94.49
38669000,-92.86
38678000,-94.08
38687000,-94.81
38696000,-94.39
38705000,-93.04
38714000,-91.57
38723000,-91.87
38732000,-92.78
38741000,-93.69
38750000,-94.08
38759000,-93.79
38768000,-92.27
38777000,-92.03
38786000,-91.87
38795000,-94.28
38804000,-95.03
38813000,-94.08
38822000,-93.69
38831000,-94.49
38840000,-93.88
38849000,-93.31
38858000,-92.11
38867000,-92.95
38876000,-92.95
38885000,-93.69
38894000,-95.14
38903000,-94.08
38912000,-92.52
38921000,-93.49
38930000,-92.78
38939000,-91.64
38948000,-93.88
38957000,-93.59
38966000,-93.31
38975000,-91.49
38984000,-93.13
38993000,-93.03
39002000,-92.27
39011000,-94.49
39020000,-94.18
39029000,-93.41
39038000,-92.6
39047000,-92.69
39056000,-93.88
39065000,-92.72
39074000,-92.05
39083000,-93.43
39092000,-93.43
39101000,-92.8
39110000,-93.92
39119000,-92.8
39128000,-93.43
39137000,-93.16
39146000,-93.25
39155000,-93.25
39164000,-93.07
39173000,-92.37
39182000,-92.05
39191000,-91.43
39200000,-94.01
39209000,-91.07
39218000,-93.25
39227000,-95.31
39236000,-92.13
39245000,-93.72
39254000,-92.97
39263000,-92.8
39272000,-92.97
39281000,-92.72
39290000,-93.82
39299000,-92.88
39308000,-93.72
39317000,-92.88
39326000,-93.62
39335000,-91.14
39344000,-91.28
39353000,-93.34
39362000,-94.01
39371000,-91.58
39380000,-92.54
39389000,-93.72
39398000,-93.62
39407000,-93.62
39416000,-93.07
39425000,-91.97
39434000,-94.01
39443000,-93.24
39452000,-93.16
39461000,-93.53
39470000,-91.89
39479000,-91.97
39488000,-92.37
39497000,-93.43
39506000,-93.07
39515000,-91.73
39524000,-94.01
39533000,-92.88
39542000,-93.43
39551000,-94.53
39560000,-92.46
39569000,-94.12
39578000,-93.62
39587000,-91.96
39596000,-93.07
39605000,-93.07
39614000,-93.07
39623000,-93.16
39632000,-93.43
39641000,-93.43
39650000,-93.24
39659000,-91.87
39668000,-92.35
39677000,-93.4
39686000,-94.18
39695000,-92.35
39704000,-93.03
39713000,-94.7
39722000,-93.88
39731000,-91.79
39740000,-93.49
39749000,-93.49
39758000,-93.88
39767000,-92.6
39776000,-91.12
39785000,-94.07
39794000,-91.41
39803000,-94.27
39812000,-91.94
39821000,-92.68
39830000,-93.58
39839000,-93.87
39848000,-92.1
39857000,-92.85
39866000,-92.6
39875000,-93.12
39884000,-93.49
39893000,-93.78
39902000,-93.68
39911000,-93.87
39920000,-91.86
39929000,-93.87
39938000,-93.12
39947000,-93.12
39956000,-93.68
39965000,-91.94
39974000,-92.43
39983000,-85.24
39992000,-67.69
40001000,-54.06
40010000,-77.42
40019000,-88.89
40028000,-91.33
40037000,-93.12
40046000,-92.77
40055000,-93.49
40064000,-91.94
40073000,-93.12
40082000,-92.59
40091000,-92.77
40100000,-93.58
40109000,-92.59
40118000,-94.91
40127000,-93.12
40136000,-92.94
40145000,-91.78
40154000,-94.27
40163000,-92.02
40172000,-92.85
40181000,-94.17
40190000,-93.48
40199000,-93.12
40208000,-93.48
40217000,-91.41
40226000,-92.94
40235000,-93.03
40244000,-92.85
40253000,-92.62
40262000,-92.8
40271000,-94
40280000,-93.9
40289000,-94.51
40298000,-93.71
40307000,-93.15
40316000,-93.24
40325000,-93.15
40334000,-91.74
40343000,-93.51
40352000,-92.8
40361000,-92.62
40370000,-93.33
40379000,-94.62
40388000,-93.51
40397000,-94.2
40406000,-93.71
40415000,-92.97
40424000,-93.33
40433000,-94.51
40442000,-93.05
40451000,-93.05
40460000,-94.4
40469000,-92.97
40478000,-92.88
40487000,-92.62
40496000,-94.51
40505000,-92.88
40514000,-92.29
40523000,-93.9
40532000,-93.51
40541000,-94.3
40550000,-93.9
40559000,-92.71
40568000,-93.51
40577000,-92.88
40586000,-92.05
40595000,-94.51
40604000,-93.51
40613000,-94.51
40622000,-94.4
40631000,-94.61
40640000,-92.88
40649000,-92.45
40658000,-94.4
40667000,-93.9
40676000,-94.4
40685000,-92.28
40694000,-91.36
40703000,-93.9
40712000,-93.7
40721000,-94.3
40730000,-93.7
40739000,-93.15
40748000,-95.16
40757000,-93.24
40766000,-93.32
40775000,-94.09
40784000,-93.51
40793000,-93.15
40802000,-93.51
40811000,-92.96
40820000,-94.09
40829000,-93.9
40838000,-94.06
40847000,-93.96
40856000,-94.26
40865000,-93.48
40874000,-93.21
40883000,-93.29
40892000,-92.59
40901000,-93.12
40910000,-92.25
40919000,-91.63
40928000,-92.09
40937000,-93.67
40946000,-94.26
40955000,-93.87
40964000,-93.87
40973000,-93.96
40982000,-93.67
40991000,-92.93
41000000,-92.09
41009000,-94.06
41018000,-93.77
41027000,-91.78
41036000,-94.06
41045000,-93.67
41054000,-93.96
41063000,-93.39
41072000,-92.93
41081000,-93.29
41090000,-93.02
41099000,-93.67
41108000,-92.84
41117000,-94.58
41126000,-93.48
41135000,-94.06
41144000,-93.86
41153000,-93.67
41162000,-93.2
41171000,-91.93
41180000,-94.06
41189000,-94.06
41198000,-94.06
41207000,-95.13
41216000,-92.84
41225000,-92.09
41234000,-92.67
41243000,-93.67
41252000,-94.47
41261000,-93.48
41270000,-93.67
41279000,-93.48
41288000,-93.29
41297000,-92.76
41306000,-92.84
41315000,-91.93
41324000,-93.29
41333000,-93.47
41342000,-93.86
41351000,-94.37
41360000,-93.11
41369000,-92.67
41378000,-93.96
41387000,-93.96
41396000,-94.58
41405000,-93.2
41414000,-94.68
41423000,-94.06
41432000,-92.58
41441000,-92.36
41450000,-91.41
41459000,-92.52
41468000,-93.33
41477000,-92.87
41486000,-92.36
41495000,-94.41
41504000,-92.61
41513000,-91.64
41522000,-93.7
41531000,-94.52
41540000,-92.78
41549000,-95.29
41558000,-93.61
41567000,-94.3
41576000,-93.23
41585000,-92.95
41594000,-93.41
41603000,-92.61
41612000,-93.51
41621000,-94.62
41630000,-93.9
41639000,-94.1
41648000,-92.19
41657000,-93.41
41666000,-90.39
41675000,-93.99
41684000,-93.41
41693000,-92.52
41702000,-93.61
41711000,-93.8
41720000,-94.2
41729000,-92.03
41738000,-93.8
41747000,-93.23
41756000,-94.51
41765000,-94.2
41774000,-94.41
41783000,-95.06
41792000,-93.41
41801000,-94.2
41810000,-93.99
41819000,-92.95
41828000,-92.18
41837000,-94.2
41846000,-94.95
41855000,-93.41
41864000,-91.87
41873000,-92.18
41882000,-91.87
41891000,-92.61
41900000,-92.52
41909000,-93.41
41918000,-92.86
41927000,-93.7
41936000,-94.19
41945000,-92.95
41954000,-93.89
41963000,-91.05
41972000,-94.3
41981000,-94.3
41990000,-93.41
41999000,-92.52
42008000,-94.72
42017000,-92.61
42026000,-92.41
42035000,-92.5
42044000,-94.68
42053000,-93.2
42062000,-93.57
42071000,-93.2
42080000,-92.67
42089000,-93.38
42098000,-93.28
42107000,-92.75
42116000,-93.76
42125000,-94.16
42134000,-94.05
42143000,-93.86
42152000,-92.58
42161000,-93.66
42170000,-94.46
42179000,-93.47
42188000,-93.86
42197000,-94.57
42206000,-91.77
42215000,-93.86
42224000,-94.78
42233000,-93.11
42242000,-92.33
42251000,-93.47
42260000,-94.25
42269000,-92.92
42278000,-94.68
42287000,-93.11
42296000,-92
42305000,-94.05
42314000,-92.75
42323000,-92.92
42332000,-93.11
42341000,-92.92
42350000,-94.25
42359000,-93.66
42368000,-94.05
42377000,-94.78
42386000,-94.05
42395000,-92.08
42404000,-93.66
42413000,-94.15
42422000,-93.66
42431000,-92.24
42440000,-92.75
42449000,-94.78
42458000,-93.85
42467000,-93.38
42476000,-93.56
42485000,-93.76
42494000,-94.05
42503000,-93.19
42512000,-93.28
42521000,-93.56
42530000,-93.66
42539000,-93.38
42548000,-94.05
42557000,-91.17
42566000,-91.39
42575000,-93.19
42584000,-94.36
42593000,-94.15
42602000,-92.75
42611000,-92.69
42620000,-93.04
42629000,-93.22
42638000,-92.1
42647000,-94.83
42656000,-93.04
42665000,-93.6
42674000,-94.29
42683000,-93.69
42692000,-93.4
42701000,-92.77
42710000,-93.4
42719000,-93.22
42728000,-92.27
42737000,-93.4
42746000,-93.6
42755000,-92.86
42764000,-92.86
42773000,-93.4
42782000,-91.94
42791000,-93.31
42800000,-93.31
42809000,-94.19
42818000,-91.7
42827000,-93.69
42836000,-92.51
42845000,-94.61
42854000,-91.86
42863000,-94.19
42872000,-93.31
42881000,-92.77
42890000,-92.02
42899000,-93.79
42908000,-92.86
42917000,-93.79
42926000,-93.04
42935000,-92.18
42944000,-93.22
42953000,-93.89
42962000,-94.09
42971000,-93.31
42980000,-93.5
42989000,-93.69
42998000,-92.77
43007000,-92.02
43016000,-92.02
43025000,-90.38
43034000,-89.99
43043000,-92.02
43052000,-92.18
43061000,-92.26
43070000,-93.59
43079000,-91.04
43088000,-92.69
43097000,-91.7
43106000,-93.5
43115000,-93.4
43124000,-91.86
43133000,-93.59
43142000,-92.43
43151000,-93.13
43160000,-93.31
43169000,-93.98
43178000,-93.59
43187000,-94.5
43196000,-93.79
43205000,-92.6
43214000,-93.65
43223000,-93.65
43232000,-91.92
43241000,-92.91
43250000,-93.27
43259000,-93
43268000,-93.27
43277000,-94.46
43286000,-92.57
43295000,-93.1
43304000,-94.24
43313000,-93.85
43322000,-91.76
43331000,-93.56
43340000,-92.57
43349000,-93.19
43358000,-93.1
43367000,-91.92
43376000,-93.1
43385000,-94.35
43394000,-92.91
43403000,-93.94
43412000,-93.75
43421000,-94.24
43430000,-93.85
43439000,-93.1
43448000,-93.55
43457000,-93.65
43466000,-95.11
43475000,-93.46
43484000,-94.04
43493000,-93.46
43502000,-93.85
43511000,-93.55
43520000,-92.23
43529000,-93.85
43538000,-93.1
43547000,-94.04
43556000,-94.24
43565000,-93.1
43574000,-93.94
43583000,-92.07
43592000,-94.45
43601000,-94.35
43610000,-93.75
43619000,-92.23
43628000,-92.57
43637000,-93.27
43646000,-93.37
43655000,-94.66
43664000,-93.37
43673000,-94.35
43682000,-94.66
43691000,-93.94
43700000,-92.74
43709000,-92.91
43718000,-94.88
43727000,-92.07
43736000,-92.74
43745000,-92.32
43754000,-91.91
43763000,-92.74
43772000,-93.46
43781000,-93.75
43790000,-94.04
43799000,-93.59
43808000,-92.94
43817000,-93.39
43826000,-92.42
43835000,-93.03
43844000,-92.17
43853000,-93.78
43862000,-92.68
43871000,-93.98
43880000,-94.93
43889000,-93.21
43898000,-94.39
43907000,-91.77
43916000,-94.28
43925000,-93.78
43934000,-93.68
43943000,-92.76
43952000,-93.03
43961000,-94.18
43970000,-93.49
43979000,-92.85
43988000,-94.39
43997000,-92.76
44006000,-91.93
44015000,-93.68
44024000,-94.39
44033000,-94.18
44042000,-92.17
44051000,-91.77
44060000,-91.85
44069000,-92.85
44078000,-94.39
44087000,-94.08
44096000,-93.39
44105000,-93.59
44114000,-94.08
44123000,-94.18
44132000,-92.85
44141000,-94.49
44150000,-92.93
44159000,-92.17
44168000,-95.16
44177000,-93.12
44186000,-93.49
44195000,-91.93
44204000,-93.78
44213000,-94.6
44222000,-93.03
44231000,-91.54
44240000,-94.08
44249000,-92.84
44258000,-92.59
44267000,-94.28
44276000,-93.59
44285000,-92.42
44294000,-94.18
44303000,-93.21
44312000,-93.49
44321000,-92.09
44330000,-92.84
44339000,-93.78
44348000,-92.68
44357000,-93.68
44366000,-92.84
44375000,-93.97
44384000,-93.64
44393000,-93.64
44402000,-92.74
44411000,-93.45
44420000,-93.74
44429000,-92.07
44438000,-92.22
44447000,-94.55
44456000,-92.74
44465000,-94.34
44474000,-92.9
44483000,-93.74
44492000,-92.81
44501000,-94.23
44510000,-93.64
44519000,-94.23
44528000,-92.81
44537000,-94.23
44546000,-93.09
44555000,-92.06
44564000,-94.14
44573000,-93.55
44582000,-93.45
44591000,-92.39
44600000,-91.09
44609000,-94.14
44618000,-93.93
44627000,-93.18
44636000,-93.84
44645000,-94.03
44654000,-95.21
44663000,-94.03
44672000,-92.81
44681000,-93.45
44690000,-92.99
44699000,-92.31
44708000,-93.17
44717000,-92.48
44726000,-93.26
44735000,-91.67
44744000,-93.84
44753000,-92.31
44762000,-92.39
44771000,-92.56
44780000,-94.88
44789000,-94.23
44798000,-92.73
44807000,-94.23
44816000,-93.17
44825000,-91.98
44834000,-92.56
44843000,-94.23
44852000,-94.55
44861000,-93.26
44870000,-93.45
44879000,-95.21
44888000,-92.73
44897000,-92.99
44906000,-94.23
44915000,-94.87
44924000,-92.99
44933000,-92.99
44942000,-94.03
44951000,-93.74
44960000,-92.64
44969000,-92.06
44978000,-89.79
44987000,-80.54
44996000,-56.97
45005000,-62.38
45014000,-82.65
45023000,-90.23
45032000,-92.25
45041000,-92
45050000,-93.58
45059000,-93.97
45068000,-93.38
45077000,-93.68
45086000,-93.87
45095000,-93.77
45104000,-92.58
45113000,-93.58
45122000,-92.67
45131000,-93.77
45140000,-93.11
45149000,-93.58
45158000,-93.97
45167000,-92.33
45176000,-94.17
45185000,-94.17
45194000,-92.58
45203000,-90.95
45212000,-93.77
45221000,-93.11
45230000,-92.08
45239000,-92.49
45248000,-93.87
45257000,-92.58
45266000,-92.92
45275000,-93.02
45284000,-92.67
45293000,-94.17
45302000,-94.59
45311000,-92.67
45320000,-92.67
45329000,-93.77
45338000,-92.84
45347000,-93.96
45356000,-92.32
45365000,-93.58
45374000,-93.58
45383000,-92.84
45392000,-94.17
45401000,-93.2
45410000,-94.38
45419000,-93.38
45428000,-91.53
45437000,-91.38
45446000,-94.59
45455000,-94.17
45464000,-93.58
45473000,-93.02
45482000,-93.2
45491000,-93.48
45500000,-94.59
45509000,-94.07
45518000,-92.08
45527000,-91.84
45536000,-94.17
45545000,-93.2
45554000,-93.02
45563000,-94.59
45572000,-93.57
45581000,-92.24
45590000,-92.49
45599000,-93.57
45608000,-93.48
45617000,-94.17
45626000,-92.83
45635000,-92
45644000,-93.2
45653000,-93.67
45662000,-92.83
45671000,-94.59
45680000,-93.77
45689000,-93.48
45698000,-92.67
45707000,-94.48
45716000,-92.92
45725000,-92.67
45734000,-94.48
45743000,-93.96
45752000,-93.77
45761000,-92.49
45770000,-94.07
45779000,-93.57
45788000,-92.83
45797000,-93.67
45806000,-92.66
45815000,-92.41
45824000,-93.11
45833000,-93.96
45842000,-92.24
45851000,-94.16
45860000,-93.38
45869000,-91.84
45878000,-92.15
45887000,-93.86
45896000,-92.83
45905000,-93.38
45914000,-93.19
45923000,-93.77
45932000,-91.08
45941000,-92.58
45950000,-92.92
45959000,-93.19
45968000,-92.74
45977000,-93.57
45986000,-93.57
45995000,-92.74
46004000,-93.19
46013000,-93.38
46022000,-93.96
46031000,-93.67
46040000,-93.29
46049000,-93.1
46058000,-93.57
46067000,-93.1
46076000,-94.69
46085000,-93.47
46094000,-93.47
46103000,-91.83
46112000,-93.01
46121000,-93.96
46130000,-93.47
46139000,-91.6
46148000,-94.06
46157000,-94.16
46166000,-93.73
46175000,-93.44
46184000,-92.63
46193000,-92.98
46202000,-92.72
46211000,-93.44
46220000,-92.21
46229000,-93.63
46238000,-94.43
46247000,-93.07
46256000,-92.98
46265000,-93.44
46274000,-94.33
46283000,-93.53
46292000,-92.89
46301000,-94.75
46310000,-92.89
46319000,-92.72
46328000,-93.82
46337000,-91.89
46346000,-93.82
46355000,-93.25
46364000,-93.07
46373000,-93.25
46382000,-93.16
46391000,-94.54
46400000,-92.54
46409000,-94.02
46418000,-92.63
46427000,-93.63
46436000,-91.58
46445000,-93.43
46454000,-93.53
46463000,-92.89
46472000,-93.63
46481000,-93.53
46490000,-92.98
46499000,-93.25
46508000,-94.02
46517000,-93.43
46526000,-93.53
46535000,-94.02
46544000,-94.02
46553000,-93.43
46562000,-93.43
46571000,-92.72
46580000,-92.3
46589000,-92.05
46598000,-93.92
46607000,-94.22
46616000,-94.01
46625000,-93.43
46634000,-92.89
46643000,-94.32
46652000,-92.89
46661000,-93.53
46670000,-92.72
46679000,-93.07
46688000,-93.72
46697000,-93.82
46706000,-93.63
46715000,-93.82
46724000,-92.63
46733000,-90.79
46742000,-91.43
46751000,-93.82
46760000,-93.63
46769000,-94.22
46778000,-93.63
46787000,-94.01
46796000,-92.72
46805000,-94.97
46814000,-94.22
46823000,-94.32
46832000,-93.25
46841000,-93.82
46850000,-94.43
46859000,-94.01
46868000,-93.07
46877000,-91.28
46886000,-93.16
46895000,-93.25
46904000,-94.74
46913000,-93.82
46922000,-91.73
46931000,-92.29
46940000,-94.01
46949000,-92.63
46958000,-93.43
46967000,-93.62
46976000,-92.97
46985000,-94.43
46994000,-92.2
47003000,-94.21
47012000,-94.64
47021000,-91.97
47030000,-92.97
47039000,-94.64
47048000,-92.63
47057000,-92.97
47066000,-93.82
47075000,-93.16
47084000,-93.24
47093000,-93.72
47102000,-93.43
47111000,-93.24
47120000,-94.43
47129000,-94.12
47138000,-93.24
47147000,-94.96
47156000,-93.43
47165000,-92.79
47174000,-93.43
47183000,-92.97
47192000,-93.15
47201000,-92.54
47210000,-92.97
47219000,-92.97
47228000,-93.34
47237000,-94.21
47246000,-93.72
47255000,-93.24
47264000,-94.42
47273000,-94.42
47282000,-92.71
47291000,-94.12
47300000,-94.21
47309000,-94.21
47318000,-93.62
47327000,-93.15
47336000,-93.72
47345000,-93.4
47354000,-93.03
47363000,-93.78
47372000,-93.88
47381000,-94.82
47390000,-93.69
47399000,-93.12
47408000,-92.68
47417000,-94.5
47426000,-93.31
47435000,-93.88
47444000,-93.03
47453000,-93.88
47462000,-94.5
47471000,-92.85
47480000,-92.34
47489000,-94.08
47498000,-93.21
47507000,-92.5
47516000,-94.18
47525000,-93.49
47534000,-92.09
47543000,-92.68
47552000,-93.78
47561000,-92.34
47570000,-93.59
47579000,-92.34
47588000,-94.39
47597000,-93.03
47606000,-93.31
47615000,-94.08
47624000,-93.31
47633000,-94.39
47642000,-92.85
47651000,-93.59
47660000,-92.93
47669000,-93.03
47678000,-91.85
47687000,-94.6
47696000,-94.39
47705000,-93.98
47714000,-94.5
47723000,-93.21
47732000,-94.39
47741000,-93.59
47750000,-93.03
47759000,-92.09
47768000,-93.3
47777000,-93.03
47786000,-94.18
47795000,-93.97
47804000,-94.18
47813000,-94.18
47822000,-93.78
47831000,-93.03
47840000,-93.97
47849000,-93.03
47858000,-92.68
47867000,-95.27
47876000,-92.33
47885000,-93.21
47894000,-92.5
47903000,-92.76
47912000,-94.82
47921000,-91.69
47930000,-92.01
47939000,-93.94
47948000,-93.27
47957000,-93
47966000,-92.65
47975000,-92.81
47984000,-93.56
47993000,-93.56
48002000,-89.95
48011000,-94.15
48020000,-93.36
48029000,-93.18
48038000,-92.9
48047000,-92.73
48056000,-93.36
48065000,-92.81
48074000,-93.75
48083000,-92.9
48092000,-93.18
48101000,-93.85
48110000,-92.47
48119000,-92.65
48128000,-92.47
48137000,-93.65
48146000,-93.36
48155000,-91.14
48164000,-94.36
48173000,-90.64
48182000,-94.14
48191000,-93.55
48200000,-91.44
48209000,-94.05
48218000,-93.55
48227000,-93.17
48236000,-94.46
48245000,-91.74
48254000,-93.09
48263000,-93.55
48272000,-94.46
48281000,-93.17
48290000,-93.94
48299000,-95.01
48308000,-93.84
48317000,-93
48326000,-93.27
48335000,-94.25
48344000,-93.84
48353000,-93.09
48362000,-93.65
48371000,-92.56
48380000,-94.35
48389000,-92.72
48398000,-94.57
48407000,-93.65
48416000,-94.79
48425000,-90.47
48434000,-93.84
48443000,-94.14
48452000,-93.55
48461000,-94.79
48470000,-93
48479000,-93.55
48488000,-93.75
48497000,-93.27
48506000,-93.75
48515000,-91.97
48524000,-92.3
48533000,-93.15
48542000,-93.91
48551000,-95.21
48560000,-93.33
48569000,-92.87
48578000,-93.24
48587000,-92.97
48596000,-92.87
48605000,-93.53
48614000,-93.53
48623000,-91.79
48632000,-94.12
48641000,-93.53
48650000,-94.02
48659000,-93.06
48668000,-92.97
48677000,-92.27
48686000,-94.54
48695000,-92.03
48704000,-93.72
48713000,-93.62
48722000,-92.97
48731000,-94.43
48740000,-94.54
48749000,-92.44
48758000,-93.62
48767000,-93.82
48776000,-93.43
48785000,-92.78
48794000,-93.72
48803000,-92.62
48812000,-93.91
48821000,-93.91
48830000,-94.22
48839000,-93.14
48848000,-92.44
48857000,-93.72
48866000,-92.97
48875000,-92.78
48884000,-94.22
48893000,-93.52
48902000,-92.19
48911000,-94.11
48920000,-92.27
48929000,-93.81
48938000,-95.45
48947000,-94.11
48956000,-93.43
48965000,-92.44
48974000,-93.91
48983000,-93.43
48992000,-92.97
49001000,-93.24
49010000,-92.02
49019000,-92.27
49028000,-92.1
49037000,-93.91
49046000,-93.14
49055000,-94.54
49064000,-94.11
49073000,-93.14
49082000,-90.61
49091000,-92.69
49100000,-92.61
49109000,-93.33
49118000,-93.38
49127000,-92.41
49136000,-93.58
49145000,-93.67
49154000,-94.59
49163000,-92.83
49172000,-93.58
49181000,-92.83
49190000,-91.68
49199000,-93.58
49208000,-93.58
49217000,-94.59
49226000,-94.27
49235000,-93.38
49244000,-93.77
49253000,-94.07
49262000,-93.38
49271000,-91.38
49280000,-93.2
49289000,-92.67
49298000,-93.96
49307000,-93.48
49316000,-93.96
49325000,-93.29
49334000,-92
49343000,-92.49
49352000,-93.67
49361000,-92.83
49370000,-93.38
49379000,-93.57
49388000,-94.27
49397000,-95.03
49406000,-92.74
49415000,-94.59
49424000,-93.19
49433000,-92.83
49442000,-92.32
49451000,-92.83
49460000,-93.67
49469000,-93.38
49478000,-90.94
49487000,-93.57
49496000,-93.96
49505000,-92.83
49514000,-94.59
49523000,-93.77
49532000,-93.77
49541000,-93.11
49550000,-93.19
49559000,-94.37
49568000,-93.48
49577000,-93.38
49586000,-94.27
49595000,-94.16
49604000,-93.38
49613000,-91.99
49622000,-93.96
49631000,-93.96
49640000,-94.37
49649000,-93.57
49658000,-93.67
49667000,-92.83
49676000,-94.59
49685000,-94.37
49694000,-94.16
49703000,-92.15
49712000,-93.54
49721000,-93.93
49730000,-94.13
49739000,-92.29
49748000,-92.8
49757000,-94.45
49766000,-92.29
49775000,-94.24
49784000,-94.13
49793000,-92.63
49802000,-94.45
49811000,-94.24
49820000,-93.93
49829000,-93.16
49838000,-92.21
49847000,-93.35
49856000,-94.13
49865000,-95.22
49874000,-94.45
49883000,-92.98
49892000,-92.89
49901000,-92.98
49910000,-94.34
49919000,-93.73
49928000,-93.16
49937000,-94.34
49946000,-93.16
49955000,-92.29
49964000,-92.38
49973000,-90.63
49982000,-85.7
49991000,-72.25
50000000,-55.05
